* Sea-Bird SBE19Plus Data File:
* FileName = c:\velocity\CATFILES\\2013_192_124923.HEX
* Software Version 12.3(r3782)
* Temperature SN = 4677
* Conductivity SN = 4677
* System UpLoad Time = Jul 11 2013 13:01:09
* DS
* SeacatPlus V 1.6b  SERIAL NO. 4677    11 Jul 2013  13:00:45
* vbatt = 12.5, vlith =  8.6, ioper =  60.7 ma, ipump =  37.5 ma,
* status = not logging
* number of scans to average = 1
* samples = 2879, free = 759721, casts = 2
* mode = profile, minimum cond freq = 3258, pump delay = 40 sec
* autorun = no, ignore magnetic switch = no
* battery type = alkaline, battery cutoff =  7.3 volts
* pressure sensor = strain gauge, range = 508.0
* SBE 38 = no, Gas Tension Device = no
* Ext Volt 0 = no, Ext Volt 1 = no, Ext Volt 2 = no, Ext Volt 3 = no
* echo commands = yes
* output format = raw HEX
* S>* DCal
* SeacatPlus V 1.6b  SERIAL NO. 4677    11 Jul 2013  13:01:13
* temperature:  18-apr-13
*     TA0 = 1.159581e-03
*     TA1 = 2.746309e-04
*     TA2 = -1.025604e-06
*     TA3 = 1.822981e-07
*     TOFFSET = 0.000000e+00
* conductivity:  18-apr-13
*     G = -1.053039e+00
*     H = 1.381198e-01
*     I = 1.137194e-04
*     J = 5.027832e-06
*     CF0 = 2.757577e+03
*     CPCOR = -9.570000e-08
*     CTCOR = 3.250000e-06
*     CSLOPE = 1.000000e+00
* pressure S/N = 6135, range = 508 psia:  17-apr-13
*     PA0 = 6.131953e-02
*     PA1 = 1.551817e-03
*     PA2 = 8.084792e-12
*     PTCA0 = 5.150465e+05
*     PTCA1 = 4.529928e+00
*     PTCA2 = -1.305966e-01
*     PTCB0 = 2.429287e+01
*     PTCB1 = -6.250001e-04
*     PTCB2 = 0.000000e+00
*     PTEMPA0 = -7.863148e+01
*     PTEMPA1 = 4.752934e+01
*     PTEMPA2 = -1.951711e-01
*     POFFSET = 0.000000e+00
* volt 0: offset = -4.611895e-02, slope = 1.251580e+00
* volt 1: offset = -4.635474e-02, slope = 1.250966e+00
* volt 2: offset = -4.601158e-02, slope = 1.250740e+00
* volt 3: offset = -4.587579e-02, slope = 1.251470e+00
*     EXTFREQSF = 1.000002e+00
* S>* cast   2 11 Jul 2013 12:49:23 samples 1237 to 2879, avg = 1, stop = mag switch
# nquan = 5
# nvalues = 1520                                  
# units = specified
# name 0 = depSM: Depth [salt water, m]
# name 1 = svCM: Sound Velocity [Chen-Millero, m/s]
# name 2 = sal00: Salinity, Practical [PSU]
# name 3 = tv290C: Temperature [ITS-90, deg C]
# name 4 = flag:  0.000e+00
# span 0 =     -0.033,     16.088                 
# span 1 =    1497.34,    1515.58                 
# span 2 =     0.1570,    12.5749                 
# span 3 =    25.0699,    27.1823                 
# span 4 = 0.0000e+00, 0.0000e+00                 
# interval = seconds: 0.25
# start_time = Jul 11 2013 13:01:09
# bad_flag = -9.990e-29
# <?xml version="1.0" encoding="UTF-8"?>
# <Sensors count="3" >
#   <sensor Channel="1" >
#     <!-- Count, Temperature -->
#     <TemperatureSensor SensorID="58" >
#       <SerialNumber>4677</SerialNumber>
#       <CalibrationDate>18-Apr-13</CalibrationDate>
#       <A0>1.15958100e-003</A0>
#       <A1>2.74630900e-004</A1>
#       <A2>-1.02560400e-006</A2>
#       <A3>1.82298100e-007</A3>
#       <Slope>1.00000000</Slope>
#       <Offset>0.0000</Offset>
#     </TemperatureSensor>
#   </sensor>
#   <sensor Channel="2" >
#     <!-- Frequency 0, Conductivity -->
#     <ConductivitySensor SensorID="3" >
#       <SerialNumber>4677</SerialNumber>
#       <CalibrationDate>18-Apr-13</CalibrationDate>
#       <UseG_J>1</UseG_J>
#       <!-- Cell const and series R are applicable only for wide range sensors. -->
#       <SeriesR>0.0000</SeriesR>
#       <CellConst>2000.0000</CellConst>
#       <Coefficients equation="0" >
#         <A>0.00000000e+000</A>
#         <B>0.00000000e+000</B>
#         <C>0.00000000e+000</C>
#         <D>0.00000000e+000</D>
#         <M>0.0</M>
#         <CPcor>-9.57000000e-008</CPcor>
#       </Coefficients>
#       <Coefficients equation="1" >
#         <G>-1.05303929e+000</G>
#         <H>1.38119774e-001</H>
#         <I>1.13719419e-004</I>
#         <J>5.02783107e-006</J>
#         <CPcor>-9.57000000e-008</CPcor>
#         <CTcor>3.2500e-006</CTcor>
#       </Coefficients>
#       <Slope>1.00000000</Slope>
#       <Offset>0.00000</Offset>
#     </ConductivitySensor>
#   </sensor>
#   <sensor Channel="3" >
#     <!-- Count, Pressure, Strain Gauge -->
#     <PressureSensor SensorID="46" >
#       <SerialNumber>4677</SerialNumber>
#       <CalibrationDate>17-Apr-13</CalibrationDate>
#       <PA0>6.13195300e-002</PA0>
#       <PA1>1.55181700e-003</PA1>
#       <PA2>8.08479100e-012</PA2>
#       <PTEMPA0>-7.86314800e+001</PTEMPA0>
#       <PTEMPA1>4.75293400e+001</PTEMPA1>
#       <PTEMPA2>-1.95171100e-001</PTEMPA2>
#       <PTCA0>5.15046500e+005</PTCA0>
#       <PTCA1>4.52992800e+000</PTCA1>
#       <PTCA2>-1.30596600e-001</PTCA2>
#       <PTCB0>2.42928700e+001</PTCB0>
#       <PTCB1>-6.25000000e-004</PTCB1>
#       <PTCB2>0.00000000e+000</PTCB2>
#       <Offset>0.000000</Offset>
#     </PressureSensor>
#   </sensor>
# </Sensors>
# datcnv_date = Jul 11 2013 13:14:45, 7.20c
# datcnv_in = C:\velocity\CATFILES\2013_192_124923.HEX C:\velocity\SVFILES\4677.con
# datcnv_skipover = 0
# file_type = ascii
*END*
     -0.021    1498.33     0.4061    25.4410  0.000e+00
     -0.021    1498.32     0.4012    25.4407  0.000e+00
     -0.025    1498.33     0.4107    25.4400  0.000e+00
     -0.027    1498.40     0.4688    25.4393  0.000e+00
     -0.023    1498.37     0.4448    25.4395  0.000e+00
     -0.019    1498.31     0.3922    25.4397  0.000e+00
     -0.018    1498.28     0.3646    25.4394  0.000e+00
     -0.015    1498.27     0.3542    25.4393  0.000e+00
     -0.015    1498.26     0.3499    25.4394  0.000e+00
     -0.016    1498.26     0.3467    25.4389  0.000e+00
     -0.018    1498.25     0.3425    25.4378  0.000e+00
     -0.016    1498.24     0.3365    25.4375  0.000e+00
     -0.017    1498.23     0.3300    25.4369  0.000e+00
     -0.015    1498.22     0.3226    25.4360  0.000e+00
     -0.015    1498.21     0.3146    25.4348  0.000e+00
     -0.017    1498.20     0.3069    25.4335  0.000e+00
     -0.016    1498.19     0.2993    25.4315  0.000e+00
     -0.016    1498.17     0.2919    25.4295  0.000e+00
     -0.014    1498.16     0.2852    25.4279  0.000e+00
     -0.017    1498.15     0.2788    25.4257  0.000e+00
     -0.017    1498.13     0.2712    25.4239  0.000e+00
     -0.017    1498.12     0.2636    25.4218  0.000e+00
     -0.016    1498.11     0.2565    25.4200  0.000e+00
     -0.016    1498.10     0.2502    25.4184  0.000e+00
     -0.017    1498.09     0.2441    25.4168  0.000e+00
     -0.017    1498.07     0.2376    25.4151  0.000e+00
     -0.016    1498.06     0.2311    25.4134  0.000e+00
     -0.014    1498.05     0.2248    25.4121  0.000e+00
     -0.017    1498.04     0.2189    25.4109  0.000e+00
     -0.017    1498.03     0.2134    25.4093  0.000e+00
     -0.017    1498.02     0.2085    25.4083  0.000e+00
     -0.018    1498.02     0.2042    25.4071  0.000e+00
     -0.016    1498.01     0.2005    25.4059  0.000e+00
     -0.017    1498.00     0.1972    25.4050  0.000e+00
     -0.016    1498.00     0.1943    25.4037  0.000e+00
     -0.017    1497.99     0.1922    25.4029  0.000e+00
     -0.017    1497.99     0.1907    25.4016  0.000e+00
     -0.015    1497.98     0.1896    25.4006  0.000e+00
     -0.016    1497.98     0.1887    25.3996  0.000e+00
     -0.017    1497.98     0.1883    25.3991  0.000e+00
     -0.017    1497.97     0.1878    25.3983  0.000e+00
     -0.016    1497.97     0.1875    25.3974  0.000e+00
     -0.016    1497.97     0.1869    25.3967  0.000e+00
     -0.016    1497.97     0.1859    25.3960  0.000e+00
     -0.015    1497.96     0.1847    25.3950  0.000e+00
     -0.017    1497.96     0.1834    25.3943  0.000e+00
     -0.014    1497.96     0.1821    25.3938  0.000e+00
     -0.016    1497.95     0.1808    25.3928  0.000e+00
     -0.018    1497.95     0.1792    25.3923  0.000e+00
     -0.015    1497.94     0.1776    25.3911  0.000e+00
     -0.017    1497.94     0.1760    25.3905  0.000e+00
     -0.017    1497.94     0.1744    25.3900  0.000e+00
     -0.016    1497.93     0.1728    25.3894  0.000e+00
     -0.016    1497.93     0.1713    25.3883  0.000e+00
     -0.019    1497.93     0.1700    25.3878  0.000e+00
     -0.017    1497.92     0.1684    25.3871  0.000e+00
     -0.017    1497.92     0.1672    25.3871  0.000e+00
     -0.016    1497.92     0.1660    25.3866  0.000e+00
     -0.016    1497.92     0.1650    25.3862  0.000e+00
     -0.017    1497.91     0.1642    25.3852  0.000e+00
     -0.018    1497.91     0.1635    25.3847  0.000e+00
     -0.016    1497.91     0.1628    25.3843  0.000e+00
     -0.014    1497.91     0.1622    25.3834  0.000e+00
     -0.016    1497.90     0.1617    25.3832  0.000e+00
     -0.015    1497.90     0.1611    25.3830  0.000e+00
     -0.016    1497.90     0.1607    25.3827  0.000e+00
     -0.016    1497.90     0.1603    25.3821  0.000e+00
     -0.014    1497.90     0.1601    25.3817  0.000e+00
     -0.017    1497.90     0.1598    25.3813  0.000e+00
     -0.017    1497.90     0.1595    25.3807  0.000e+00
     -0.017    1497.90     0.1591    25.3808  0.000e+00
     -0.018    1497.89     0.1588    25.3805  0.000e+00
     -0.016    1497.89     0.1586    25.3806  0.000e+00
     -0.017    1497.89     0.1584    25.3802  0.000e+00
     -0.016    1497.89     0.1583    25.3800  0.000e+00
     -0.016    1497.89     0.1582    25.3797  0.000e+00
     -0.015    1497.89     0.1581    25.3794  0.000e+00
     -0.018    1497.89     0.1581    25.3792  0.000e+00
     -0.017    1497.89     0.1582    25.3784  0.000e+00
     -0.018    1497.89     0.1582    25.3780  0.000e+00
     -0.015    1497.89     0.1581    25.3778  0.000e+00
     -0.017    1497.89     0.1578    25.3777  0.000e+00
     -0.017    1497.88     0.1575    25.3775  0.000e+00
     -0.019    1497.88     0.1573    25.3771  0.000e+00
     -0.016    1497.88     0.1571    25.3770  0.000e+00
     -0.016    1497.88     0.1570    25.3765  0.000e+00
     -0.017    1497.88     0.1571    25.3762  0.000e+00
     -0.017    1497.88     0.1573    25.3758  0.000e+00
     -0.016    1497.88     0.1573    25.3756  0.000e+00
     -0.016    1497.88     0.1574    25.3752  0.000e+00
     -0.015    1497.88     0.1575    25.3751  0.000e+00
     -0.015    1497.88     0.1576    25.3744  0.000e+00
     -0.017    1497.88     0.1578    25.3740  0.000e+00
     -0.016    1497.87     0.1580    25.3734  0.000e+00
     -0.016    1497.87     0.1582    25.3726  0.000e+00
     -0.016    1497.87     0.1583    25.3720  0.000e+00
     -0.016    1497.87     0.1584    25.3719  0.000e+00
     -0.017    1497.87     0.1586    25.3713  0.000e+00
     -0.019    1497.87     0.1589    25.3707  0.000e+00
     -0.017    1497.87     0.1593    25.3704  0.000e+00
     -0.016    1497.87     0.1596    25.3703  0.000e+00
     -0.017    1497.87     0.1600    25.3702  0.000e+00
     -0.018    1497.87     0.1604    25.3698  0.000e+00
     -0.018    1497.87     0.1608    25.3697  0.000e+00
     -0.017    1497.87     0.1613    25.3688  0.000e+00
     -0.017    1497.87     0.1620    25.3688  0.000e+00
     -0.016    1497.87     0.1626    25.3681  0.000e+00
     -0.018    1497.86     0.1631    25.3674  0.000e+00
     -0.018    1497.86     0.1636    25.3669  0.000e+00
     -0.016    1497.86     0.1640    25.3663  0.000e+00
     -0.017    1497.86     0.1646    25.3655  0.000e+00
     -0.017    1497.86     0.1654    25.3651  0.000e+00
     -0.018    1497.86     0.1663    25.3647  0.000e+00
     -0.018    1497.86     0.1670    25.3642  0.000e+00
     -0.017    1497.86     0.1676    25.3638  0.000e+00
     -0.017    1497.86     0.1681    25.3635  0.000e+00
     -0.018    1497.86     0.1688    25.3634  0.000e+00
     -0.017    1497.86     0.1696    25.3627  0.000e+00
     -0.017    1497.86     0.1705    25.3623  0.000e+00
     -0.017    1497.86     0.1714    25.3621  0.000e+00
     -0.017    1497.86     0.1722    25.3618  0.000e+00
     -0.017    1497.86     0.1728    25.3616  0.000e+00
     -0.019    1497.86     0.1733    25.3610  0.000e+00
     -0.017    1497.86     0.1740    25.3609  0.000e+00
     -0.016    1497.86     0.1749    25.3603  0.000e+00
     -0.017    1497.86     0.1759    25.3598  0.000e+00
     -0.018    1497.86     0.1769    25.3595  0.000e+00
     -0.018    1497.86     0.1778    25.3589  0.000e+00
     -0.017    1497.86     0.1786    25.3579  0.000e+00
     -0.018    1497.85     0.1794    25.3569  0.000e+00
     -0.018    1497.85     0.1803    25.3561  0.000e+00
     -0.018    1497.85     0.1813    25.3557  0.000e+00
     -0.017    1497.85     0.1822    25.3550  0.000e+00
     -0.017    1497.85     0.1833    25.3544  0.000e+00
     -0.018    1497.85     0.1843    25.3539  0.000e+00
     -0.018    1497.85     0.1853    25.3538  0.000e+00
     -0.015    1497.85     0.1861    25.3535  0.000e+00
     -0.018    1497.85     0.1869    25.3527  0.000e+00
     -0.018    1497.85     0.1880    25.3523  0.000e+00
     -0.017    1497.85     0.1888    25.3516  0.000e+00
     -0.019    1497.85     0.1897    25.3513  0.000e+00
     -0.015    1497.85     0.1906    25.3508  0.000e+00
     -0.019    1497.85     0.1914    25.3503  0.000e+00
     -0.019    1497.85     0.1923    25.3497  0.000e+00
     -0.018    1497.85     0.1932    25.3493  0.000e+00
     -0.018    1497.85     0.1938    25.3490  0.000e+00
     -0.018    1497.85     0.1946    25.3482  0.000e+00
     -0.017    1497.85     0.1952    25.3476  0.000e+00
     -0.017    1497.85     0.1959    25.3475  0.000e+00
     -0.018    1497.85     0.1965    25.3470  0.000e+00
     -0.019    1497.85     0.1972    25.3465  0.000e+00
     -0.019    1497.85     0.1979    25.3460  0.000e+00
     -0.019    1497.85     0.1986    25.3454  0.000e+00
     -0.020    1497.85     0.1994    25.3454  0.000e+00
     -0.017    1497.85     0.2000    25.3450  0.000e+00
     -0.015    1497.85     0.2006    25.3444  0.000e+00
     -0.019    1497.84     0.2012    25.3438  0.000e+00
     -0.019    1497.84     0.2018    25.3437  0.000e+00
     -0.018    1497.84     0.2023    25.3433  0.000e+00
     -0.018    1497.84     0.2027    25.3431  0.000e+00
     -0.015    1497.84     0.2031    25.3421  0.000e+00
     -0.015    1497.84     0.2034    25.3417  0.000e+00
     -0.018    1497.84     0.2039    25.3411  0.000e+00
     -0.019    1497.84     0.2045    25.3404  0.000e+00
     -0.020    1497.84     0.2051    25.3397  0.000e+00
     -0.016    1497.84     0.2056    25.3393  0.000e+00
     -0.018    1497.84     0.2060    25.3390  0.000e+00
     -0.018    1497.84     0.2064    25.3383  0.000e+00
     -0.016    1497.83     0.2067    25.3375  0.000e+00
     -0.018    1497.83     0.2072    25.3374  0.000e+00
     -0.019    1497.83     0.2077    25.3366  0.000e+00
     -0.018    1497.83     0.2088    25.3362  0.000e+00
     -0.015    1497.83     0.2112    25.3354  0.000e+00
     -0.016    1497.84     0.2138    25.3348  0.000e+00
     -0.018    1497.84     0.2156    25.3348  0.000e+00
     -0.016    1497.84     0.2166    25.3342  0.000e+00
     -0.019    1497.84     0.2175    25.3337  0.000e+00
     -0.019    1497.83     0.2181    25.3329  0.000e+00
     -0.018    1497.83     0.2188    25.3320  0.000e+00
     -0.018    1497.83     0.2194    25.3316  0.000e+00
     -0.018    1497.83     0.2198    25.3310  0.000e+00
     -0.016    1497.83     0.2202    25.3302  0.000e+00
     -0.018    1497.83     0.2206    25.3295  0.000e+00
     -0.018    1497.83     0.2211    25.3288  0.000e+00
     -0.016    1497.83     0.2218    25.3280  0.000e+00
     -0.016    1497.82     0.2223    25.3272  0.000e+00
     -0.019    1497.82     0.2225    25.3268  0.000e+00
     -0.016    1497.82     0.2225    25.3261  0.000e+00
     -0.018    1497.82     0.2224    25.3251  0.000e+00
     -0.018    1497.82     0.2225    25.3245  0.000e+00
     -0.016    1497.82     0.2228    25.3237  0.000e+00
     -0.018    1497.81     0.2234    25.3232  0.000e+00
     -0.018    1497.81     0.2235    25.3223  0.000e+00
     -0.016    1497.81     0.2238    25.3215  0.000e+00
     -0.018    1497.81     0.2239    25.3207  0.000e+00
     -0.018    1497.81     0.2241    25.3201  0.000e+00
     -0.020    1497.81     0.2243    25.3196  0.000e+00
     -0.017    1497.80     0.2245    25.3189  0.000e+00
     -0.016    1497.80     0.2249    25.3182  0.000e+00
     -0.016    1497.80     0.2252    25.3178  0.000e+00
     -0.019    1497.80     0.2254    25.3174  0.000e+00
     -0.017    1497.80     0.2254    25.3168  0.000e+00
     -0.016    1497.80     0.2256    25.3163  0.000e+00
     -0.019    1497.80     0.2258    25.3151  0.000e+00
     -0.018    1497.79     0.2263    25.3143  0.000e+00
     -0.017    1497.79     0.2268    25.3135  0.000e+00
     -0.016    1497.79     0.2271    25.3129  0.000e+00
     -0.017    1497.79     0.2274    25.3122  0.000e+00
     -0.017    1497.79     0.2276    25.3113  0.000e+00
     -0.020    1497.79     0.2280    25.3106  0.000e+00
     -0.019    1497.78     0.2284    25.3066  0.000e+00
     -0.015    1497.77     0.2288    25.3028  0.000e+00
     -0.020    1497.76     0.2292    25.3015  0.000e+00
     -0.019    1497.76     0.2296    25.3007  0.000e+00
     -0.017    1497.76     0.2299    25.3003  0.000e+00
     -0.016    1497.76     0.2302    25.2998  0.000e+00
     -0.017    1497.76     0.2306    25.2993  0.000e+00
     -0.016    1497.76     0.2311    25.2988  0.000e+00
     -0.019    1497.76     0.2316    25.2981  0.000e+00
     -0.020    1497.76     0.2319    25.2978  0.000e+00
     -0.016    1497.76     0.2322    25.2975  0.000e+00
     -0.016    1497.76     0.2326    25.2970  0.000e+00
     -0.016    1497.75     0.2329    25.2961  0.000e+00
     -0.019    1497.75     0.2333    25.2952  0.000e+00
     -0.020    1497.75     0.2337    25.2941  0.000e+00
     -0.017    1497.75     0.2342    25.2935  0.000e+00
     -0.017    1497.75     0.2346    25.2929  0.000e+00
     -0.017    1497.75     0.2350    25.2923  0.000e+00
     -0.019    1497.74     0.2354    25.2916  0.000e+00
     -0.019    1497.74     0.2358    25.2909  0.000e+00
     -0.018    1497.74     0.2362    25.2903  0.000e+00
     -0.017    1497.74     0.2365    25.2899  0.000e+00
     -0.018    1497.74     0.2368    25.2891  0.000e+00
     -0.017    1497.74     0.2371    25.2888  0.000e+00
     -0.017    1497.74     0.2375    25.2874  0.000e+00
     -0.016    1497.73     0.2381    25.2862  0.000e+00
     -0.017    1497.73     0.2388    25.2856  0.000e+00
     -0.016    1497.73     0.2393    25.2849  0.000e+00
     -0.016    1497.73     0.2398    25.2840  0.000e+00
     -0.020    1497.73     0.2402    25.2833  0.000e+00
     -0.018    1497.73     0.2407    25.2828  0.000e+00
     -0.017    1497.73     0.2411    25.2822  0.000e+00
     -0.017    1497.73     0.2417    25.2816  0.000e+00
     -0.016    1497.72     0.2421    25.2810  0.000e+00
     -0.021    1497.72     0.2426    25.2808  0.000e+00
     -0.016    1497.72     0.2430    25.2801  0.000e+00
     -0.018    1497.72     0.2434    25.2791  0.000e+00
     -0.017    1497.72     0.2439    25.2783  0.000e+00
     -0.021    1497.72     0.2445    25.2775  0.000e+00
     -0.017    1497.72     0.2450    25.2765  0.000e+00
     -0.018    1497.71     0.2456    25.2756  0.000e+00
     -0.018    1497.71     0.2458    25.2749  0.000e+00
     -0.018    1497.71     0.2460    25.2743  0.000e+00
     -0.020    1497.71     0.2465    25.2733  0.000e+00
     -0.018    1497.71     0.2471    25.2727  0.000e+00
     -0.018    1497.71     0.2476    25.2720  0.000e+00
     -0.018    1497.71     0.2481    25.2712  0.000e+00
     -0.017    1497.70     0.2487    25.2700  0.000e+00
     -0.017    1497.70     0.2491    25.2691  0.000e+00
     -0.017    1497.70     0.2495    25.2679  0.000e+00
     -0.017    1497.70     0.2501    25.2670  0.000e+00
     -0.016    1497.70     0.2507    25.2667  0.000e+00
     -0.017    1497.69     0.2514    25.2655  0.000e+00
     -0.017    1497.69     0.2519    25.2646  0.000e+00
     -0.018    1497.69     0.2525    25.2636  0.000e+00
     -0.018    1497.69     0.2531    25.2631  0.000e+00
     -0.020    1497.69     0.2537    25.2626  0.000e+00
     -0.020    1497.69     0.2543    25.2616  0.000e+00
     -0.018    1497.68     0.2550    25.2608  0.000e+00
     -0.018    1497.68     0.2556    25.2603  0.000e+00
     -0.017    1497.68     0.2561    25.2596  0.000e+00
     -0.018    1497.68     0.2566    25.2587  0.000e+00
     -0.016    1497.68     0.2571    25.2580  0.000e+00
     -0.017    1497.68     0.2576    25.2570  0.000e+00
     -0.018    1497.68     0.2583    25.2559  0.000e+00
     -0.016    1497.67     0.2588    25.2553  0.000e+00
     -0.018    1497.67     0.2594    25.2544  0.000e+00
     -0.016    1497.67     0.2600    25.2534  0.000e+00
     -0.017    1497.67     0.2605    25.2528  0.000e+00
     -0.018    1497.67     0.2611    25.2521  0.000e+00
     -0.016    1497.67     0.2617    25.2512  0.000e+00
     -0.017    1497.67     0.2623    25.2506  0.000e+00
     -0.016    1497.67     0.2630    25.2499  0.000e+00
     -0.016    1497.66     0.2635    25.2488  0.000e+00
     -0.018    1497.66     0.2642    25.2478  0.000e+00
     -0.018    1497.66     0.2648    25.2471  0.000e+00
     -0.017    1497.66     0.2655    25.2460  0.000e+00
     -0.019    1497.66     0.2662    25.2453  0.000e+00
     -0.018    1497.66     0.2669    25.2445  0.000e+00
     -0.018    1497.65     0.2676    25.2438  0.000e+00
     -0.019    1497.65     0.2682    25.2427  0.000e+00
     -0.018    1497.65     0.2688    25.2420  0.000e+00
     -0.019    1497.65     0.2695    25.2411  0.000e+00
     -0.019    1497.65     0.2703    25.2402  0.000e+00
     -0.018    1497.65     0.2713    25.2394  0.000e+00
     -0.018    1497.64     0.2722    25.2380  0.000e+00
     -0.018    1497.64     0.2731    25.2372  0.000e+00
     -0.021    1497.64     0.2740    25.2360  0.000e+00
     -0.019    1497.64     0.2748    25.2351  0.000e+00
     -0.017    1497.64     0.2757    25.2344  0.000e+00
     -0.019    1497.64     0.2764    25.2333  0.000e+00
     -0.018    1497.63     0.2771    25.2325  0.000e+00
     -0.018    1497.63     0.2778    25.2319  0.000e+00
     -0.017    1497.63     0.2783    25.2314  0.000e+00
     -0.018    1497.63     0.2789    25.2305  0.000e+00
     -0.021    1497.63     0.2796    25.2297  0.000e+00
     -0.018    1497.63     0.2805    25.2286  0.000e+00
     -0.017    1497.63     0.2814    25.2275  0.000e+00
     -0.017    1497.63     0.2821    25.2268  0.000e+00
     -0.018    1497.62     0.2828    25.2256  0.000e+00
     -0.018    1497.62     0.2833    25.2250  0.000e+00
     -0.019    1497.62     0.2840    25.2236  0.000e+00
     -0.021    1497.62     0.2848    25.2225  0.000e+00
     -0.018    1497.61     0.2853    25.2214  0.000e+00
     -0.017    1497.61     0.2857    25.2203  0.000e+00
     -0.019    1497.61     0.2862    25.2195  0.000e+00
     -0.016    1497.61     0.2866    25.2186  0.000e+00
     -0.017    1497.61     0.2872    25.2180  0.000e+00
     -0.018    1497.61     0.2877    25.2172  0.000e+00
     -0.018    1497.60     0.2881    25.2164  0.000e+00
     -0.017    1497.60     0.2884    25.2155  0.000e+00
     -0.017    1497.60     0.2885    25.2142  0.000e+00
     -0.019    1497.60     0.2886    25.2133  0.000e+00
     -0.019    1497.59     0.2888    25.2124  0.000e+00
     -0.019    1497.59     0.2891    25.2114  0.000e+00
     -0.017    1497.59     0.2892    25.2105  0.000e+00
     -0.019    1497.59     0.2892    25.2093  0.000e+00
     -0.019    1497.58     0.2892    25.2074  0.000e+00
     -0.018    1497.58     0.2893    25.2052  0.000e+00
     -0.018    1497.57     0.2895    25.2037  0.000e+00
     -0.018    1497.57     0.2897    25.2030  0.000e+00
     -0.017    1497.57     0.2898    25.2022  0.000e+00
     -0.018    1497.57     0.2897    25.2012  0.000e+00
     -0.018    1497.56     0.2896    25.2000  0.000e+00
     -0.019    1497.56     0.2897    25.1989  0.000e+00
     -0.018    1497.56     0.2898    25.1981  0.000e+00
     -0.016    1497.55     0.2899    25.1970  0.000e+00
     -0.017    1497.55     0.2899    25.1961  0.000e+00
     -0.017    1497.55     0.2901    25.1945  0.000e+00
     -0.018    1497.55     0.2902    25.1934  0.000e+00
     -0.019    1497.54     0.2903    25.1925  0.000e+00
     -0.017    1497.54     0.2903    25.1918  0.000e+00
     -0.019    1497.54     0.2905    25.1911  0.000e+00
     -0.016    1497.54     0.2907    25.1908  0.000e+00
     -0.018    1497.54     0.2911    25.1898  0.000e+00
     -0.017    1497.54     0.2914    25.1892  0.000e+00
     -0.017    1497.53     0.2914    25.1882  0.000e+00
     -0.018    1497.53     0.2911    25.1873  0.000e+00
     -0.016    1497.53     0.2908    25.1863  0.000e+00
     -0.018    1497.52     0.2907    25.1853  0.000e+00
     -0.019    1497.52     0.2912    25.1843  0.000e+00
     -0.017    1497.52     0.2912    25.1836  0.000e+00
     -0.021    1497.56     0.3293    25.1823  0.000e+00
     -0.027    1497.71     0.4654    25.1816  0.000e+00
     -0.033    1497.69     0.4517    25.1809  0.000e+00
     -0.030    1497.64     0.4118    25.1796  0.000e+00
     -0.026    1497.62     0.3940    25.1782  0.000e+00
     -0.028    1497.62     0.3935    25.1775  0.000e+00
     -0.027    1497.62     0.3935    25.1761  0.000e+00
     -0.027    1497.61     0.4013    25.1697  0.000e+00
     -0.028    1497.61     0.4188    25.1645  0.000e+00
     -0.028    1497.61     0.4280    25.1606  0.000e+00
     -0.027    1497.62     0.4464    25.1539  0.000e+00
     -0.026    1497.57     0.4316    25.1441  0.000e+00
     -0.026    1497.54     0.4331    25.1329  0.000e+00
     -0.030    1497.51     0.4518    25.1122  0.000e+00
     -0.030    1497.46     0.4662    25.0873  0.000e+00
     -0.028    1497.42     0.4621    25.0732  0.000e+00
     -0.028    1497.39     0.4446    25.0704  0.000e+00
     -0.027    1497.37     0.4235    25.0699  0.000e+00
     -0.025    1497.34     0.4028    25.0702  0.000e+00
     -0.027    1497.34     0.4014    25.0709  0.000e+00
     -0.029    1497.34     0.4006    25.0715  0.000e+00
     -0.026    1497.35     0.4000    25.0734  0.000e+00
     -0.028    1497.37     0.4169    25.0746  0.000e+00
     -0.026    1497.38     0.4229    25.0759  0.000e+00
     -0.030    1497.41     0.4469    25.0771  0.000e+00
     -0.027    1497.41     0.4437    25.0780  0.000e+00
     -0.027    1497.44     0.4672    25.0789  0.000e+00
     -0.026    1497.49     0.5131    25.0791  0.000e+00
     -0.028    1497.53     0.5437    25.0799  0.000e+00
      0.003    1501.09     3.7610    25.0900  0.000e+00
      0.076    1506.66     7.8941    25.5085  0.000e+00
      0.167    1511.29    10.7463    26.1284  0.000e+00
      0.256    1513.82    12.1881    26.5269  0.000e+00
      0.368    1514.35    12.1458    26.7616  0.000e+00
      0.485    1514.66    12.1188    26.8975  0.000e+00
      0.574    1514.82    12.0887    26.9746  0.000e+00
      0.633    1514.89    12.0679    27.0134  0.000e+00
      0.663    1514.90    12.0432    27.0285  0.000e+00
      0.652    1514.87    12.0240    27.0262  0.000e+00
      0.631    1514.86    12.0219    27.0211  0.000e+00
      0.617    1514.87    12.0382    27.0170  0.000e+00
      0.614    1514.87    12.0421    27.0153  0.000e+00
      0.630    1514.87    12.0453    27.0152  0.000e+00
      0.673    1514.87    12.0510    27.0140  0.000e+00
      0.717    1514.83    12.0249    27.0082  0.000e+00
      0.754    1514.80    12.0033    27.0033  0.000e+00
      0.785    1514.79    12.0051    26.9994  0.000e+00
      0.796    1514.75    12.0145    26.9791  0.000e+00
      0.797    1514.59    12.0211    26.9101  0.000e+00
      0.797    1514.43    12.0299    26.8415  0.000e+00
      0.801    1514.35    12.0467    26.8026  0.000e+00
      0.806    1514.36    12.0595    26.8001  0.000e+00
      0.816    1514.45    12.0607    26.8333  0.000e+00
      0.819    1514.53    12.0550    26.8708  0.000e+00
      0.820    1514.59    12.0534    26.8939  0.000e+00
      0.820    1514.65    12.0579    26.9166  0.000e+00
      0.834    1514.70    12.0571    26.9405  0.000e+00
      0.836    1514.70    12.0141    26.9587  0.000e+00
      0.819    1514.74    12.0138    26.9729  0.000e+00
      0.809    1514.79    12.0338    26.9841  0.000e+00
      0.805    1514.82    12.0508    26.9917  0.000e+00
      0.814    1514.85    12.0533    27.0022  0.000e+00
      0.834    1514.86    12.0482    27.0088  0.000e+00
      0.869    1514.86    12.0485    27.0081  0.000e+00
      0.888    1514.81    12.0036    27.0082  0.000e+00
      0.889    1514.81    11.9958    27.0095  0.000e+00
      0.883    1514.79    11.9984    27.0028  0.000e+00
      0.874    1514.79    12.0188    26.9938  0.000e+00
      0.869    1514.80    12.0346    26.9893  0.000e+00
      0.864    1514.82    12.0469    26.9908  0.000e+00
      0.863    1514.83    12.0506    26.9957  0.000e+00
      0.866    1514.84    12.0462    27.0012  0.000e+00
      0.865    1514.83    12.0315    27.0014  0.000e+00
      0.860    1514.81    12.0301    26.9946  0.000e+00
      0.865    1514.81    12.0394    26.9919  0.000e+00
      0.882    1514.84    12.0522    26.9977  0.000e+00
      0.899    1514.86    12.0502    27.0056  0.000e+00
      0.907    1514.85    12.0315    27.0102  0.000e+00
      0.902    1514.81    12.0046    27.0081  0.000e+00
      0.882    1514.81    12.0060    27.0077  0.000e+00
      0.867    1514.85    12.0348    27.0099  0.000e+00
      0.859    1514.88    12.0505    27.0138  0.000e+00
      0.863    1514.89    12.0525    27.0183  0.000e+00
      0.868    1514.89    12.0473    27.0210  0.000e+00
      0.875    1514.87    12.0376    27.0185  0.000e+00
      0.881    1514.86    12.0309    27.0137  0.000e+00
      0.884    1514.84    12.0285    27.0097  0.000e+00
      0.879    1514.84    12.0296    27.0070  0.000e+00
      0.874    1514.83    12.0314    27.0050  0.000e+00
      0.871    1514.85    12.0444    27.0061  0.000e+00
      0.878    1514.87    12.0521    27.0105  0.000e+00
      0.889    1514.88    12.0498    27.0160  0.000e+00
      0.891    1514.86    12.0269    27.0177  0.000e+00
      0.886    1514.82    12.0000    27.0127  0.000e+00
      0.870    1514.82    11.9965    27.0125  0.000e+00
      0.859    1514.85    12.0223    27.0156  0.000e+00
      0.864    1514.88    12.0416    27.0199  0.000e+00
      0.873    1514.90    12.0448    27.0259  0.000e+00
      0.883    1514.89    12.0306    27.0296  0.000e+00
      0.893    1514.86    12.0007    27.0286  0.000e+00
      0.891    1514.85    11.9909    27.0274  0.000e+00
      0.892    1514.85    12.0027    27.0251  0.000e+00
      0.896    1514.84    12.0290    27.0096  0.000e+00
      0.898    1514.83    12.0423    26.9964  0.000e+00
      0.898    1514.82    12.0366    26.9948  0.000e+00
      0.885    1514.79    12.0134    26.9942  0.000e+00
      0.868    1514.78    11.9998    26.9946  0.000e+00
      0.854    1514.79    12.0086    26.9986  0.000e+00
      0.856    1514.83    12.0314    27.0034  0.000e+00
      0.874    1514.84    12.0341    27.0071  0.000e+00
      0.897    1514.82    12.0107    27.0092  0.000e+00
      0.907    1514.80    11.9857    27.0105  0.000e+00
      0.909    1514.78    11.9743    27.0085  0.000e+00
      0.908    1514.72    11.9843    26.9792  0.000e+00
      0.901    1514.64    12.0174    26.9303  0.000e+00
      0.890    1514.57    12.0450    26.8923  0.000e+00
      0.876    1514.55    12.0514    26.8798  0.000e+00
      0.870    1514.54    12.0367    26.8840  0.000e+00
      0.862    1514.52    12.0188    26.8837  0.000e+00
      0.850    1514.52    12.0131    26.8850  0.000e+00
      0.849    1514.52    12.0131    26.8844  0.000e+00
      0.856    1514.51    12.0305    26.8712  0.000e+00
      0.883    1514.51    12.0502    26.8623  0.000e+00
      0.919    1514.51    12.0430    26.8686  0.000e+00
      0.937    1514.51    12.0136    26.8774  0.000e+00
      0.929    1514.51    11.9998    26.8843  0.000e+00
      0.899    1514.40    12.0152    26.8356  0.000e+00
      0.858    1514.24    12.0557    26.7521  0.000e+00
      0.836    1514.14    12.0782    26.7014  0.000e+00
      0.839    1514.17    12.0871    26.7103  0.000e+00
      0.857    1514.27    12.0677    26.7577  0.000e+00
      0.872    1514.34    12.0350    26.7997  0.000e+00
      0.881    1514.39    12.0173    26.8300  0.000e+00
      0.885    1514.38    12.0182    26.8246  0.000e+00
      0.888    1514.28    12.0463    26.7729  0.000e+00
      0.892    1514.21    12.0703    26.7309  0.000e+00
      0.907    1514.19    12.0731    26.7239  0.000e+00
      0.909    1514.19    12.0552    26.7310  0.000e+00
      0.892    1514.20    12.0419    26.7405  0.000e+00
      0.867    1514.21    12.0366    26.7486  0.000e+00
      0.841    1514.15    12.0559    26.7169  0.000e+00
      0.827    1514.10    12.0775    26.6850  0.000e+00
      0.844    1514.11    12.0882    26.6852  0.000e+00
      0.882    1514.22    12.0804    26.7314  0.000e+00
      0.904    1514.31    12.0440    26.7850  0.000e+00
      0.908    1514.37    12.0207    26.8200  0.000e+00
      0.901    1514.40    12.0152    26.8350  0.000e+00
      0.883    1514.31    12.0365    26.7884  0.000e+00
      0.868    1514.22    12.0647    26.7407  0.000e+00
      0.873    1514.21    12.0765    26.7307  0.000e+00
      0.880    1514.28    12.0607    26.7646  0.000e+00
      0.877    1514.33    12.0353    26.7974  0.000e+00
      0.871    1514.37    12.0226    26.8191  0.000e+00
      0.867    1514.36    12.0273    26.8128  0.000e+00
      0.867    1514.30    12.0503    26.7798  0.000e+00
      0.879    1514.27    12.0672    26.7570  0.000e+00
      0.890    1514.28    12.0566    26.7676  0.000e+00
      0.892    1514.30    12.0385    26.7812  0.000e+00
      0.885    1514.31    12.0281    26.7922  0.000e+00
      0.872    1514.28    12.0350    26.7785  0.000e+00
      0.865    1514.21    12.0575    26.7402  0.000e+00
      0.867    1514.18    12.0710    26.7199  0.000e+00
      0.875    1514.20    12.0663    26.7291  0.000e+00
      0.884    1514.21    12.0494    26.7437  0.000e+00
      0.883    1514.23    12.0403    26.7560  0.000e+00
      0.889    1514.26    12.0351    26.7667  0.000e+00
      0.891    1514.24    12.0415    26.7559  0.000e+00
      0.886    1514.20    12.0490    26.7388  0.000e+00
      0.878    1514.17    12.0543    26.7251  0.000e+00
      0.869    1514.16    12.0580    26.7177  0.000e+00
      0.864    1514.16    12.0591    26.7163  0.000e+00
      0.859    1514.16    12.0564    26.7191  0.000e+00
      0.866    1514.16    12.0504    26.7206  0.000e+00
      0.874    1514.14    12.0474    26.7162  0.000e+00
      0.884    1514.13    12.0470    26.7099  0.000e+00
      0.889    1514.13    12.0491    26.7075  0.000e+00
      0.896    1514.13    12.0502    26.7082  0.000e+00
      0.893    1514.12    12.0486    26.7068  0.000e+00
      0.884    1514.11    12.0476    26.7023  0.000e+00
      0.873    1514.10    12.0499    26.6962  0.000e+00
      0.866    1514.09    12.0531    26.6923  0.000e+00
      0.862    1514.10    12.0573    26.6920  0.000e+00
      0.868    1514.10    12.0621    26.6937  0.000e+00
      0.874    1514.11    12.0582    26.6964  0.000e+00
      0.876    1514.10    12.0475    26.6994  0.000e+00
      0.876    1514.10    12.0429    26.7007  0.000e+00
      0.876    1514.09    12.0487    26.6921  0.000e+00
      0.879    1514.05    12.0662    26.6690  0.000e+00
      0.896    1514.03    12.0767    26.6573  0.000e+00
      0.906    1514.03    12.0685    26.6616  0.000e+00
      0.903    1514.06    12.0804    26.6666  0.000e+00
      0.887    1514.26    12.1731    26.7077  0.000e+00
      0.867    1514.55    12.1548    26.8367  0.000e+00
      0.853    1514.80    12.1271    26.9513  0.000e+00
      0.847    1514.95    12.1103    27.0197  0.000e+00
      0.850    1515.03    12.1023    27.0547  0.000e+00
      0.860    1515.07    12.0990    27.0736  0.000e+00
      0.872    1515.10    12.0973    27.0843  0.000e+00
      0.886    1515.12    12.0975    27.0913  0.000e+00
      0.905    1515.13    12.0996    27.0971  0.000e+00
      0.914    1515.14    12.0977    27.1032  0.000e+00
      0.916    1515.15    12.0969    27.1075  0.000e+00
      0.904    1515.16    12.0964    27.1101  0.000e+00
      0.883    1515.16    12.0963    27.1118  0.000e+00
      0.862    1515.16    12.0945    27.1123  0.000e+00
      0.846    1515.15    12.0923    27.1103  0.000e+00
      0.843    1515.15    12.0940    27.1055  0.000e+00
      0.846    1515.14    12.0962    27.1029  0.000e+00
      0.855    1515.14    12.0977    27.1033  0.000e+00
      0.869    1515.15    12.0995    27.1059  0.000e+00
      0.882    1515.16    12.0991    27.1104  0.000e+00
      0.892    1515.17    12.1000    27.1143  0.000e+00
      0.904    1515.18    12.1002    27.1177  0.000e+00
      0.914    1515.19    12.1000    27.1197  0.000e+00
      0.907    1515.19    12.0991    27.1215  0.000e+00
      0.892    1515.19    12.0974    27.1227  0.000e+00
      0.868    1515.18    12.0945    27.1215  0.000e+00
      0.846    1515.18    12.0947    27.1178  0.000e+00
      0.845    1515.17    12.0963    27.1142  0.000e+00
      0.860    1515.17    12.0963    27.1129  0.000e+00
      0.876    1515.17    12.0985    27.1120  0.000e+00
      0.889    1515.17    12.1003    27.1133  0.000e+00
      0.888    1515.18    12.1002    27.1171  0.000e+00
      0.878    1515.19    12.0986    27.1210  0.000e+00
      0.869    1515.19    12.0972    27.1226  0.000e+00
      0.862    1515.19    12.0971    27.1220  0.000e+00
      0.865    1515.19    12.0978    27.1210  0.000e+00
      0.880    1515.19    12.0979    27.1211  0.000e+00
      0.899    1515.19    12.0993    27.1211  0.000e+00
      0.906    1515.19    12.0996    27.1212  0.000e+00
      0.899    1515.19    12.0983    27.1217  0.000e+00
      0.884    1515.19    12.0988    27.1225  0.000e+00
      0.860    1515.19    12.0973    27.1229  0.000e+00
      0.859    1515.19    12.0962    27.1210  0.000e+00
      0.869    1515.18    12.0991    27.1174  0.000e+00
      0.868    1515.18    12.0995    27.1176  0.000e+00
      0.867    1515.19    12.0996    27.1195  0.000e+00
      0.863    1515.19    12.0991    27.1214  0.000e+00
      0.858    1515.19    12.0993    27.1229  0.000e+00
      0.872    1515.19    12.0990    27.1236  0.000e+00
      0.898    1515.20    12.0994    27.1243  0.000e+00
      0.913    1515.20    12.0990    27.1255  0.000e+00
      0.914    1515.20    12.0989    27.1260  0.000e+00
      0.899    1515.20    12.0985    27.1259  0.000e+00
      0.871    1515.20    12.0983    27.1253  0.000e+00
      0.855    1515.20    12.0982    27.1246  0.000e+00
      0.850    1515.19    12.0980    27.1237  0.000e+00
      0.860    1515.19    12.0982    27.1233  0.000e+00
      0.868    1515.19    12.0991    27.1227  0.000e+00
      0.876    1515.19    12.0997    27.1230  0.000e+00
      0.877    1515.20    12.0991    27.1237  0.000e+00
      0.873    1515.20    12.0989    27.1240  0.000e+00
      0.877    1515.19    12.0987    27.1235  0.000e+00
      0.885    1515.19    12.0993    27.1232  0.000e+00
      0.894    1515.19    12.0989    27.1232  0.000e+00
      0.893    1515.19    12.0989    27.1229  0.000e+00
      0.890    1515.19    12.0991    27.1224  0.000e+00
      0.877    1515.19    12.0992    27.1218  0.000e+00
      0.870    1515.19    12.0990    27.1217  0.000e+00
      0.867    1515.19    12.0990    27.1214  0.000e+00
      0.869    1515.19    12.0990    27.1212  0.000e+00
      0.871    1515.19    12.0993    27.1215  0.000e+00
      0.871    1515.19    12.0997    27.1206  0.000e+00
      0.870    1515.19    12.0999    27.1198  0.000e+00
      0.874    1515.19    12.1012    27.1189  0.000e+00
      0.882    1515.18    12.1016    27.1176  0.000e+00
      0.884    1515.18    12.1026    27.1164  0.000e+00
      0.883    1515.18    12.1030    27.1154  0.000e+00
      0.881    1515.18    12.1025    27.1147  0.000e+00
      0.880    1515.18    12.1026    27.1144  0.000e+00
      0.878    1515.17    12.1029    27.1135  0.000e+00
      0.876    1515.17    12.1035    27.1124  0.000e+00
      0.871    1515.17    12.1033    27.1111  0.000e+00
      0.867    1515.17    12.1029    27.1113  0.000e+00
      0.864    1515.17    12.1033    27.1113  0.000e+00
      0.864    1515.17    12.1039    27.1105  0.000e+00
      0.872    1515.17    12.1035    27.1100  0.000e+00
      0.884    1515.16    12.1034    27.1087  0.000e+00
      0.894    1515.16    12.1035    27.1082  0.000e+00
      0.897    1515.16    12.1032    27.1088  0.000e+00
      0.893    1515.17    12.1027    27.1096  0.000e+00
      0.884    1515.16    12.1024    27.1096  0.000e+00
      0.873    1515.16    12.1024    27.1097  0.000e+00
      0.865    1515.16    12.1021    27.1096  0.000e+00
      0.856    1515.16    12.1021    27.1091  0.000e+00
      0.849    1515.16    12.1024    27.1084  0.000e+00
      0.850    1515.16    12.1026    27.1077  0.000e+00
      0.857    1515.16    12.1025    27.1076  0.000e+00
      0.869    1515.16    12.1023    27.1076  0.000e+00
      0.893    1515.16    12.1016    27.1072  0.000e+00
      0.911    1515.16    12.1008    27.1067  0.000e+00
      0.915    1515.15    12.1012    27.1058  0.000e+00
      0.903    1515.15    12.1025    27.1052  0.000e+00
      0.879    1515.16    12.1025    27.1066  0.000e+00
      0.860    1515.16    12.1022    27.1072  0.000e+00
      0.854    1515.16    12.1023    27.1076  0.000e+00
      0.851    1515.16    12.1019    27.1078  0.000e+00
      0.848    1515.16    12.1020    27.1071  0.000e+00
      0.851    1515.16    12.1020    27.1067  0.000e+00
      0.856    1515.16    12.1019    27.1066  0.000e+00
      0.871    1515.16    12.1015    27.1067  0.000e+00
      0.894    1515.16    12.1009    27.1066  0.000e+00
      0.907    1515.15    12.1002    27.1063  0.000e+00
      0.902    1515.15    12.1010    27.1051  0.000e+00
      0.887    1515.15    12.1024    27.1047  0.000e+00
      0.866    1515.15    12.1025    27.1053  0.000e+00
      0.850    1515.15    12.1021    27.1057  0.000e+00
      0.853    1515.15    12.1018    27.1052  0.000e+00
      0.864    1515.15    12.1025    27.1043  0.000e+00
      0.877    1515.15    12.1026    27.1042  0.000e+00
      0.884    1515.15    12.1026    27.1044  0.000e+00
      0.883    1515.15    12.1030    27.1051  0.000e+00
      0.874    1515.16    12.1036    27.1061  0.000e+00
      0.861    1515.16    12.1026    27.1079  0.000e+00
      0.850    1515.16    12.1027    27.1085  0.000e+00
      0.856    1515.16    12.1025    27.1091  0.000e+00
      0.864    1515.16    12.1016    27.1091  0.000e+00
      0.875    1515.16    12.1017    27.1087  0.000e+00
      0.881    1515.16    12.1014    27.1082  0.000e+00
      0.882    1515.16    12.1012    27.1075  0.000e+00
      0.883    1515.16    12.1011    27.1070  0.000e+00
      0.880    1515.16    12.1008    27.1064  0.000e+00
      0.877    1515.15    12.1011    27.1053  0.000e+00
      0.866    1515.15    12.1007    27.1046  0.000e+00
      0.859    1515.15    12.1008    27.1042  0.000e+00
      0.860    1515.15    12.1007    27.1034  0.000e+00
      0.870    1515.15    12.1011    27.1029  0.000e+00
      0.878    1515.15    12.1014    27.1030  0.000e+00
      0.877    1515.15    12.1013    27.1024  0.000e+00
      0.874    1515.15    12.1016    27.1023  0.000e+00
      0.866    1515.15    12.1008    27.1024  0.000e+00
      0.864    1515.14    12.1002    27.1017  0.000e+00
      0.870    1515.14    12.1006    27.1007  0.000e+00
      0.873    1515.14    12.1007    27.1008  0.000e+00
      0.869    1515.14    12.1003    27.1007  0.000e+00
      0.864    1515.14    12.1001    27.1006  0.000e+00
      0.863    1515.14    12.1000    27.1003  0.000e+00
      0.876    1515.14    12.0999    27.1001  0.000e+00
      0.893    1515.14    12.0998    27.1000  0.000e+00
      0.899    1515.14    12.0999    27.0996  0.000e+00
      0.891    1515.14    12.0993    27.0996  0.000e+00
      0.870    1515.13    12.0985    27.0991  0.000e+00
      0.847    1515.13    12.0982    27.0984  0.000e+00
      0.841    1515.13    12.0982    27.0974  0.000e+00
      0.848    1515.13    12.0981    27.0966  0.000e+00
      0.862    1515.13    12.0984    27.0960  0.000e+00
      0.878    1515.13    12.0987    27.0960  0.000e+00
      0.885    1515.13    12.0985    27.0967  0.000e+00
      0.889    1515.13    12.0983    27.0968  0.000e+00
      0.897    1515.13    12.0980    27.0968  0.000e+00
      0.905    1515.13    12.0982    27.0967  0.000e+00
      0.892    1515.13    12.0983    27.0964  0.000e+00
      0.868    1515.13    12.0980    27.0963  0.000e+00
      0.840    1515.13    12.0981    27.0960  0.000e+00
      0.813    1515.13    12.0982    27.0959  0.000e+00
      0.827    1515.13    12.0979    27.0959  0.000e+00
      0.866    1515.13    12.0984    27.0955  0.000e+00
      0.898    1515.13    12.0991    27.0954  0.000e+00
      0.910    1515.13    12.0990    27.0960  0.000e+00
      0.905    1515.13    12.0984    27.0968  0.000e+00
      0.880    1515.13    12.0985    27.0968  0.000e+00
      0.865    1515.13    12.0984    27.0966  0.000e+00
      0.867    1515.13    12.0984    27.0966  0.000e+00
      0.870    1515.13    12.0982    27.0964  0.000e+00
      0.863    1515.13    12.0984    27.0961  0.000e+00
      0.857    1515.13    12.0977    27.0956  0.000e+00
      0.851    1515.12    12.0972    27.0953  0.000e+00
      0.853    1515.12    12.0977    27.0944  0.000e+00
      0.870    1515.12    12.0980    27.0944  0.000e+00
      0.891    1515.12    12.0974    27.0942  0.000e+00
      0.897    1515.12    12.0969    27.0942  0.000e+00
      0.893    1515.12    12.0951    27.0940  0.000e+00
      0.878    1515.12    12.0954    27.0934  0.000e+00
      0.862    1515.12    12.0952    27.0933  0.000e+00
      0.855    1515.12    12.0963    27.0931  0.000e+00
      0.856    1515.12    12.0966    27.0932  0.000e+00
      0.863    1515.12    12.0964    27.0933  0.000e+00
      0.872    1515.12    12.0968    27.0932  0.000e+00
      0.874    1515.12    12.0966    27.0935  0.000e+00
      0.871    1515.12    12.0967    27.0938  0.000e+00
      0.868    1515.12    12.0966    27.0940  0.000e+00
      0.868    1515.12    12.0970    27.0938  0.000e+00
      0.876    1515.12    12.0971    27.0939  0.000e+00
      0.883    1515.12    12.0970    27.0940  0.000e+00
      0.886    1515.12    12.0969    27.0947  0.000e+00
      0.883    1515.12    12.0976    27.0948  0.000e+00
      0.872    1515.13    12.0995    27.0949  0.000e+00
      0.859    1515.13    12.1022    27.0961  0.000e+00
      0.852    1515.13    12.1010    27.0978  0.000e+00
      0.854    1515.13    12.0992    27.0988  0.000e+00
      0.865    1515.14    12.1017    27.0987  0.000e+00
      0.870    1515.14    12.1035    27.0994  0.000e+00
      0.876    1515.15    12.1057    27.1014  0.000e+00
      0.875    1515.15    12.1074    27.1031  0.000e+00
      0.874    1515.16    12.1073    27.1053  0.000e+00
      0.879    1515.16    12.1064    27.1069  0.000e+00
      0.889    1515.16    12.1071    27.1075  0.000e+00
      0.892    1515.17    12.1079    27.1081  0.000e+00
      0.888    1515.17    12.1087    27.1092  0.000e+00
      0.872    1515.17    12.1097    27.1107  0.000e+00
      0.854    1515.17    12.1058    27.1117  0.000e+00
      0.838    1515.17    12.1049    27.1111  0.000e+00
      0.838    1515.17    12.1052    27.1097  0.000e+00
      0.853    1515.16    12.1033    27.1088  0.000e+00
      0.875    1515.16    12.1008    27.1072  0.000e+00
      0.893    1515.15    12.1010    27.1058  0.000e+00
      0.901    1515.15    12.1020    27.1046  0.000e+00
      0.891    1515.15    12.1016    27.1043  0.000e+00
      0.874    1515.15    12.1006    27.1041  0.000e+00
      0.862    1515.15    12.1007    27.1034  0.000e+00
      0.860    1515.15    12.1010    27.1029  0.000e+00
      0.863    1515.15    12.1011    27.1025  0.000e+00
      0.863    1515.14    12.1005    27.1024  0.000e+00
      0.859    1515.14    12.0997    27.1019  0.000e+00
      0.861    1515.14    12.1000    27.1015  0.000e+00
      0.870    1515.14    12.0995    27.1011  0.000e+00
      0.886    1515.14    12.0997    27.1005  0.000e+00
      0.893    1515.14    12.1004    27.1004  0.000e+00
      0.886    1515.14    12.1007    27.1005  0.000e+00
      0.874    1515.14    12.1020    27.1009  0.000e+00
      0.856    1515.14    12.1018    27.1015  0.000e+00
      0.852    1515.14    12.1019    27.1016  0.000e+00
      0.858    1515.15    12.1027    27.1018  0.000e+00
      0.869    1515.15    12.1016    27.1026  0.000e+00
      0.876    1515.15    12.1013    27.1033  0.000e+00
      0.881    1515.15    12.1015    27.1033  0.000e+00
      0.879    1515.15    12.1008    27.1032  0.000e+00
      0.873    1515.15    12.1005    27.1028  0.000e+00
      0.873    1515.14    12.1008    27.1023  0.000e+00
      0.875    1515.14    12.1008    27.1020  0.000e+00
      0.876    1515.14    12.1010    27.1020  0.000e+00
      0.866    1515.14    12.1013    27.1018  0.000e+00
      0.853    1515.14    12.1013    27.1022  0.000e+00
      0.840    1515.14    12.1014    27.1022  0.000e+00
      0.842    1515.15    12.1014    27.1025  0.000e+00
      0.868    1515.15    12.1009    27.1027  0.000e+00
      0.896    1515.15    12.1009    27.1025  0.000e+00
      0.906    1515.15    12.1010    27.1028  0.000e+00
      0.903    1515.15    12.1010    27.1028  0.000e+00
      0.882    1515.15    12.1007    27.1029  0.000e+00
      0.856    1515.15    12.1005    27.1027  0.000e+00
      0.847    1515.14    12.1003    27.1024  0.000e+00
      0.850    1515.14    12.1004    27.1017  0.000e+00
      0.853    1515.14    12.1003    27.1013  0.000e+00
      0.859    1515.14    12.0997    27.1008  0.000e+00
      0.864    1515.14    12.1000    27.1003  0.000e+00
      0.868    1515.14    12.0997    27.1004  0.000e+00
      0.879    1515.14    12.1000    27.1002  0.000e+00
      0.892    1515.14    12.1008    27.1006  0.000e+00
      0.902    1515.14    12.1009    27.1016  0.000e+00
      0.897    1515.15    12.1007    27.1029  0.000e+00
      0.887    1515.15    12.1010    27.1037  0.000e+00
      0.864    1515.15    12.1005    27.1048  0.000e+00
      0.845    1515.15    12.1001    27.1047  0.000e+00
      0.831    1515.15    12.1003    27.1039  0.000e+00
      0.835    1515.15    12.1012    27.1032  0.000e+00
      0.854    1515.15    12.1000    27.1043  0.000e+00
      0.874    1515.15    12.0991    27.1047  0.000e+00
      0.888    1515.15    12.1010    27.1035  0.000e+00
      0.890    1515.15    12.1015    27.1043  0.000e+00
      0.881    1515.16    12.1025    27.1058  0.000e+00
      0.877    1515.16    12.1017    27.1069  0.000e+00
      0.879    1515.16    12.1008    27.1075  0.000e+00
      0.872    1515.16    12.1008    27.1076  0.000e+00
      0.869    1515.16    12.1007    27.1073  0.000e+00
      0.866    1515.16    12.1004    27.1074  0.000e+00
      0.861    1515.16    12.1006    27.1067  0.000e+00
      0.859    1515.15    12.1006    27.1066  0.000e+00
      0.859    1515.16    12.1001    27.1069  0.000e+00
      0.857    1515.15    12.1000    27.1068  0.000e+00
      0.861    1515.15    12.1001    27.1057  0.000e+00
      0.864    1515.15    12.1006    27.1050  0.000e+00
      0.872    1515.15    12.1007    27.1046  0.000e+00
      0.882    1515.15    12.1003    27.1047  0.000e+00
      0.887    1515.15    12.0998    27.1045  0.000e+00
      0.888    1515.15    12.0997    27.1044  0.000e+00
      0.882    1515.15    12.1000    27.1037  0.000e+00
      0.873    1515.15    12.0998    27.1032  0.000e+00
      0.862    1515.14    12.0994    27.1029  0.000e+00
      0.853    1515.14    12.0994    27.1024  0.000e+00
      0.851    1515.14    12.0993    27.1019  0.000e+00
      0.855    1515.14    12.0990    27.1016  0.000e+00
      0.858    1515.14    12.0990    27.1008  0.000e+00
      0.863    1515.14    12.0987    27.1004  0.000e+00
      0.871    1515.14    12.0988    27.1005  0.000e+00
      0.882    1515.14    12.0991    27.1004  0.000e+00
      0.888    1515.14    12.0995    27.1006  0.000e+00
      0.894    1515.14    12.0995    27.1011  0.000e+00
      0.887    1515.14    12.0996    27.1013  0.000e+00
      0.874    1515.14    12.0998    27.1017  0.000e+00
      0.858    1515.14    12.0993    27.1022  0.000e+00
      0.843    1515.14    12.0989    27.1018  0.000e+00
      0.843    1515.14    12.0989    27.1013  0.000e+00
      0.854    1515.14    12.0991    27.1009  0.000e+00
      0.871    1515.14    12.0994    27.1004  0.000e+00
      0.884    1515.14    12.0999    27.1007  0.000e+00
      0.889    1515.14    12.1001    27.1011  0.000e+00
      0.887    1515.14    12.1004    27.1020  0.000e+00
      0.879    1515.15    12.1002    27.1028  0.000e+00
      0.866    1515.15    12.1005    27.1033  0.000e+00
      0.854    1515.15    12.1001    27.1041  0.000e+00
      0.852    1515.15    12.0999    27.1043  0.000e+00
      0.858    1515.15    12.1003    27.1043  0.000e+00
      0.861    1515.15    12.1002    27.1046  0.000e+00
      0.868    1515.15    12.1000    27.1055  0.000e+00
      0.875    1515.15    12.0999    27.1061  0.000e+00
      0.884    1515.15    12.0999    27.1067  0.000e+00
      0.892    1515.16    12.0998    27.1068  0.000e+00
      0.886    1515.15    12.0998    27.1066  0.000e+00
      0.870    1515.16    12.0994    27.1071  0.000e+00
      0.850    1515.15    12.0991    27.1067  0.000e+00
      0.841    1515.15    12.0993    27.1062  0.000e+00
      0.847    1515.15    12.0991    27.1061  0.000e+00
      0.862    1515.15    12.0991    27.1058  0.000e+00
      0.875    1515.15    12.1000    27.1057  0.000e+00
      0.880    1515.16    12.1005    27.1067  0.000e+00
      0.880    1515.16    12.0998    27.1084  0.000e+00
      0.879    1515.16    12.0991    27.1093  0.000e+00
      0.886    1515.16    12.0988    27.1092  0.000e+00
      0.891    1515.16    12.0989    27.1092  0.000e+00
      0.885    1515.16    12.0973    27.1084  0.000e+00
      0.864    1515.15    12.0977    27.1069  0.000e+00
      0.839    1515.15    12.0982    27.1054  0.000e+00
      0.827    1515.15    12.0984    27.1046  0.000e+00
      0.838    1515.15    12.0984    27.1042  0.000e+00
      0.861    1515.14    12.0976    27.1038  0.000e+00
      0.885    1515.14    12.0954    27.1033  0.000e+00
      0.898    1515.14    12.0956    27.1020  0.000e+00
      0.901    1515.14    12.0957    27.1003  0.000e+00
      0.893    1515.13    12.0961    27.0993  0.000e+00
      0.885    1515.13    12.0958    27.0989  0.000e+00
      0.872    1515.13    12.0947    27.0985  0.000e+00
      0.860    1515.12    12.0913    27.0976  0.000e+00
      0.850    1515.12    12.0937    27.0960  0.000e+00
      0.848    1515.12    12.0934    27.0953  0.000e+00
      0.849    1515.11    12.0903    27.0945  0.000e+00
      0.852    1515.11    12.0893    27.0933  0.000e+00
      0.862    1515.11    12.0903    27.0917  0.000e+00
      0.873    1515.11    12.0896    27.0908  0.000e+00
      0.885    1515.10    12.0893    27.0902  0.000e+00
      0.896    1515.10    12.0899    27.0893  0.000e+00
      0.896    1515.10    12.0899    27.0889  0.000e+00
      0.888    1515.10    12.0890    27.0889  0.000e+00
      0.870    1515.10    12.0883    27.0885  0.000e+00
      0.857    1515.10    12.0884    27.0876  0.000e+00
      0.849    1515.09    12.0884    27.0868  0.000e+00
      0.846    1515.09    12.0886    27.0864  0.000e+00
      0.847    1515.09    12.0890    27.0863  0.000e+00
      0.851    1515.09    12.0890    27.0863  0.000e+00
      0.861    1515.09    12.0890    27.0862  0.000e+00
      0.878    1515.09    12.0891    27.0864  0.000e+00
      0.894    1515.09    12.0877    27.0866  0.000e+00
      0.898    1515.09    12.0870    27.0864  0.000e+00
      0.880    1515.09    12.0863    27.0854  0.000e+00
      0.859    1515.09    12.0883    27.0849  0.000e+00
      0.852    1515.09    12.0885    27.0849  0.000e+00
      0.855    1515.09    12.0881    27.0852  0.000e+00
      0.866    1515.09    12.0880    27.0852  0.000e+00
      0.872    1515.09    12.0887    27.0851  0.000e+00
      0.863    1515.09    12.0869    27.0854  0.000e+00
      0.848    1515.09    12.0856    27.0850  0.000e+00
      0.848    1515.08    12.0867    27.0839  0.000e+00
      0.863    1515.09    12.0880    27.0837  0.000e+00
      0.887    1515.09    12.0888    27.0840  0.000e+00
      0.897    1515.09    12.0896    27.0846  0.000e+00
      0.888    1515.09    12.0889    27.0857  0.000e+00
      0.870    1515.09    12.0886    27.0861  0.000e+00
      0.849    1515.09    12.0882    27.0862  0.000e+00
      0.842    1515.09    12.0876    27.0861  0.000e+00
      0.851    1515.09    12.0879    27.0858  0.000e+00
      0.868    1515.09    12.0880    27.0856  0.000e+00
      0.878    1515.09    12.0914    27.0856  0.000e+00
      0.883    1515.10    12.0923    27.0872  0.000e+00
      0.880    1515.10    12.0911    27.0881  0.000e+00
      0.873    1515.10    12.0910    27.0884  0.000e+00
      0.867    1515.10    12.0895    27.0885  0.000e+00
      0.864    1515.10    12.0899    27.0879  0.000e+00
      0.861    1515.10    12.0908    27.0875  0.000e+00
      0.856    1515.10    12.0924    27.0883  0.000e+00
      0.851    1515.10    12.0911    27.0891  0.000e+00
      0.857    1515.10    12.0904    27.0894  0.000e+00
      0.864    1515.10    12.0905    27.0892  0.000e+00
      0.878    1515.10    12.0907    27.0892  0.000e+00
      0.886    1515.10    12.0913    27.0890  0.000e+00
      0.884    1515.10    12.0912    27.0898  0.000e+00
      0.880    1515.11    12.0923    27.0900  0.000e+00
      0.875    1515.11    12.0935    27.0901  0.000e+00
      0.865    1515.11    12.0938    27.0906  0.000e+00
      0.857    1515.11    12.0969    27.0913  0.000e+00
      0.852    1515.12    12.0966    27.0930  0.000e+00
      0.847    1515.12    12.0965    27.0941  0.000e+00
      0.851    1515.12    12.0955    27.0946  0.000e+00
      0.858    1515.12    12.0943    27.0942  0.000e+00
      0.869    1515.12    12.0938    27.0937  0.000e+00
      0.876    1515.12    12.0949    27.0932  0.000e+00
      0.881    1515.12    12.0944    27.0929  0.000e+00
      0.881    1515.11    12.0935    27.0926  0.000e+00
      0.877    1515.11    12.0936    27.0925  0.000e+00
      0.875    1515.11    12.0937    27.0924  0.000e+00
      0.870    1515.11    12.0937    27.0923  0.000e+00
      0.871    1515.11    12.0941    27.0923  0.000e+00
      0.862    1515.11    12.0944    27.0919  0.000e+00
      0.852    1515.11    12.0937    27.0922  0.000e+00
      0.846    1515.11    12.0940    27.0920  0.000e+00
      0.849    1515.11    12.0935    27.0919  0.000e+00
      0.859    1515.11    12.0934    27.0917  0.000e+00
      0.873    1515.11    12.0928    27.0914  0.000e+00
      0.882    1515.11    12.0936    27.0913  0.000e+00
      0.877    1515.11    12.0942    27.0910  0.000e+00
      0.871    1515.11    12.0939    27.0913  0.000e+00
      0.866    1515.11    12.0935    27.0916  0.000e+00
      0.861    1515.11    12.0934    27.0918  0.000e+00
      0.862    1515.11    12.0937    27.0912  0.000e+00
      0.862    1515.11    12.0939    27.0915  0.000e+00
      0.865    1515.11    12.0937    27.0922  0.000e+00
      0.874    1515.11    12.0946    27.0925  0.000e+00
      0.879    1515.12    12.0953    27.0933  0.000e+00
      0.878    1515.12    12.0934    27.0945  0.000e+00
      0.866    1515.12    12.0946    27.0948  0.000e+00
      0.856    1515.12    12.0965    27.0950  0.000e+00
      0.850    1515.13    12.0989    27.0957  0.000e+00
      0.856    1515.13    12.0984    27.0971  0.000e+00
      0.867    1515.13    12.0989    27.0978  0.000e+00
      0.871    1515.13    12.0990    27.0981  0.000e+00
      0.868    1515.14    12.1001    27.0987  0.000e+00
      0.863    1515.14    12.1024    27.0991  0.000e+00
      0.865    1515.14    12.1010    27.1005  0.000e+00
      0.870    1515.14    12.1025    27.1009  0.000e+00
      0.872    1515.14    12.1025    27.1015  0.000e+00
      0.873    1515.15    12.1022    27.1021  0.000e+00
      0.872    1515.15    12.1036    27.1024  0.000e+00
      0.867    1515.15    12.1041    27.1030  0.000e+00
      0.863    1515.15    12.1020    27.1035  0.000e+00
      0.860    1515.15    12.1014    27.1034  0.000e+00
      0.858    1515.15    12.1018    27.1025  0.000e+00
      0.861    1515.15    12.1015    27.1023  0.000e+00
      0.864    1515.14    12.1009    27.1020  0.000e+00
      0.867    1515.14    12.0984    27.1014  0.000e+00
      0.864    1515.14    12.0995    27.0999  0.000e+00
      0.866    1515.14    12.1001    27.0993  0.000e+00
      0.870    1515.14    12.1021    27.0991  0.000e+00
      0.874    1515.14    12.1014    27.0998  0.000e+00
      0.875    1515.14    12.1020    27.1004  0.000e+00
      0.873    1515.14    12.1021    27.1007  0.000e+00
      0.858    1515.14    12.1013    27.1012  0.000e+00
      0.849    1515.14    12.1009    27.1008  0.000e+00
      0.847    1515.14    12.1000    27.1002  0.000e+00
      0.853    1515.14    12.0983    27.0996  0.000e+00
      0.873    1515.13    12.0974    27.0981  0.000e+00
      0.887    1515.13    12.0974    27.0970  0.000e+00
      0.886    1515.12    12.0950    27.0958  0.000e+00
      0.876    1515.12    12.0954    27.0945  0.000e+00
      0.861    1515.12    12.0975    27.0933  0.000e+00
      0.844    1515.12    12.0965    27.0934  0.000e+00
      0.841    1515.12    12.0960    27.0934  0.000e+00
      0.853    1515.12    12.0950    27.0928  0.000e+00
      0.865    1515.11    12.0921    27.0917  0.000e+00
      0.872    1515.11    12.0929    27.0904  0.000e+00
      0.866    1515.11    12.0932    27.0897  0.000e+00
      0.857    1515.10    12.0927    27.0894  0.000e+00
      0.857    1515.10    12.0921    27.0891  0.000e+00
      0.874    1515.10    12.0910    27.0884  0.000e+00
      0.887    1515.10    12.0897    27.0878  0.000e+00
      0.887    1515.10    12.0898    27.0870  0.000e+00
      0.879    1515.10    12.0902    27.0866  0.000e+00
      0.857    1515.09    12.0903    27.0862  0.000e+00
      0.837    1515.09    12.0896    27.0855  0.000e+00
      0.835    1515.09    12.0904    27.0850  0.000e+00
      0.848    1515.09    12.0920    27.0849  0.000e+00
      0.863    1515.10    12.0995    27.0856  0.000e+00
      0.878    1515.11    12.0972    27.0892  0.000e+00
      0.879    1515.11    12.0972    27.0913  0.000e+00
      0.868    1515.12    12.0973    27.0927  0.000e+00
      0.862    1515.12    12.0956    27.0935  0.000e+00
      0.871    1515.12    12.0949    27.0932  0.000e+00
      0.880    1515.12    12.0957    27.0927  0.000e+00
      0.878    1515.12    12.0969    27.0929  0.000e+00
      0.867    1515.12    12.0986    27.0933  0.000e+00
      0.847    1515.12    12.0983    27.0946  0.000e+00
      0.828    1515.13    12.0981    27.0956  0.000e+00
      0.833    1515.13    12.0975    27.0959  0.000e+00
      0.852    1515.13    12.0984    27.0960  0.000e+00
      0.876    1515.13    12.0981    27.0962  0.000e+00
      0.894    1515.13    12.0977    27.0966  0.000e+00
      0.897    1515.13    12.0977    27.0967  0.000e+00
      0.886    1515.13    12.0973    27.0969  0.000e+00
      0.871    1515.13    12.0968    27.0968  0.000e+00
      0.858    1515.13    12.0967    27.0960  0.000e+00
      0.846    1515.12    12.0956    27.0957  0.000e+00
      0.841    1515.12    12.0953    27.0949  0.000e+00
      0.836    1515.12    12.0952    27.0945  0.000e+00
      0.844    1515.12    12.0951    27.0938  0.000e+00
      0.862    1515.12    12.0948    27.0933  0.000e+00
      0.883    1515.12    12.0955    27.0933  0.000e+00
      0.893    1515.12    12.0959    27.0942  0.000e+00
      0.892    1515.12    12.0955    27.0944  0.000e+00
      0.882    1515.12    12.0954    27.0945  0.000e+00
      0.870    1515.12    12.0954    27.0943  0.000e+00
      0.862    1515.12    12.0960    27.0940  0.000e+00
      0.858    1515.12    12.0961    27.0943  0.000e+00
      0.847    1515.12    12.0957    27.0940  0.000e+00
      0.842    1515.12    12.0951    27.0940  0.000e+00
      0.834    1515.12    12.0951    27.0934  0.000e+00
      0.836    1515.12    12.0951    27.0929  0.000e+00
      0.861    1515.11    12.0943    27.0923  0.000e+00
      0.888    1515.11    12.0948    27.0914  0.000e+00
      0.898    1515.11    12.0947    27.0910  0.000e+00
      0.895    1515.11    12.0944    27.0909  0.000e+00
      0.882    1515.11    12.0944    27.0904  0.000e+00
      0.869    1515.11    12.0943    27.0903  0.000e+00
      0.864    1515.11    12.0950    27.0899  0.000e+00
      0.851    1515.11    12.0948    27.0906  0.000e+00
      0.841    1515.11    12.0947    27.0904  0.000e+00
      0.831    1515.11    12.0947    27.0902  0.000e+00
      0.828    1515.11    12.0948    27.0902  0.000e+00
      0.837    1515.11    12.0945    27.0901  0.000e+00
      0.859    1515.11    12.0951    27.0901  0.000e+00
      0.886    1515.11    12.0954    27.0907  0.000e+00
      0.902    1515.11    12.0953    27.0915  0.000e+00
      0.903    1515.11    12.0958    27.0919  0.000e+00
      0.894    1515.12    12.0955    27.0922  0.000e+00
      0.877    1515.12    12.0952    27.0926  0.000e+00
      0.858    1515.11    12.0950    27.0925  0.000e+00
      0.840    1515.11    12.0950    27.0926  0.000e+00
      0.829    1515.11    12.0950    27.0921  0.000e+00
      0.827    1515.11    12.0950    27.0920  0.000e+00
      0.832    1515.11    12.0951    27.0917  0.000e+00
      0.851    1515.11    12.0952    27.0914  0.000e+00
      0.873    1515.11    12.0954    27.0916  0.000e+00
      0.893    1515.11    12.0958    27.0917  0.000e+00
      0.906    1515.12    12.0962    27.0921  0.000e+00
      0.902    1515.12    12.0966    27.0926  0.000e+00
      0.883    1515.12    12.0970    27.0933  0.000e+00
      0.858    1515.12    12.0963    27.0940  0.000e+00
      0.835    1515.12    12.0959    27.0944  0.000e+00
      0.830    1515.12    12.0958    27.0941  0.000e+00
      0.838    1515.12    12.0957    27.0939  0.000e+00
      0.850    1515.12    12.0958    27.0936  0.000e+00
      0.866    1515.12    12.0944    27.0934  0.000e+00
      0.877    1515.12    12.0953    27.0932  0.000e+00
      0.879    1515.12    12.0959    27.0931  0.000e+00
      0.874    1515.12    12.0967    27.0935  0.000e+00
      0.867    1515.12    12.0964    27.0944  0.000e+00
      0.861    1515.12    12.0960    27.0947  0.000e+00
      0.863    1515.12    12.0964    27.0949  0.000e+00
      0.863    1515.12    12.0964    27.0948  0.000e+00
      0.860    1515.12    12.0962    27.0951  0.000e+00
      0.860    1515.12    12.0962    27.0952  0.000e+00
      0.859    1515.13    12.0977    27.0956  0.000e+00
      0.866    1515.13    12.0978    27.0963  0.000e+00
      0.869    1515.13    12.0976    27.0970  0.000e+00
      0.868    1515.13    12.0958    27.0974  0.000e+00
      0.866    1515.12    12.0938    27.0967  0.000e+00
      0.856    1515.12    12.0938    27.0956  0.000e+00
      0.849    1515.12    12.0939    27.0948  0.000e+00
      0.849    1515.12    12.0941    27.0942  0.000e+00
      0.858    1515.12    12.0939    27.0942  0.000e+00
      0.873    1515.11    12.0904    27.0936  0.000e+00
      0.884    1515.11    12.0913    27.0922  0.000e+00
      0.878    1515.11    12.0912    27.0910  0.000e+00
      0.865    1515.11    12.0911    27.0908  0.000e+00
      0.850    1515.11    12.0920    27.0902  0.000e+00
      0.846    1515.11    12.0917    27.0903  0.000e+00
      0.856    1515.11    12.0916    27.0902  0.000e+00
      0.872    1515.11    12.0920    27.0900  0.000e+00
      0.880    1515.11    12.0923    27.0902  0.000e+00
      0.871    1515.11    12.0933    27.0904  0.000e+00
      0.858    1515.11    12.0931    27.0907  0.000e+00
      0.847    1515.11    12.0924    27.0910  0.000e+00
      0.844    1515.11    12.0923    27.0906  0.000e+00
      0.854    1515.11    12.0925    27.0902  0.000e+00
      0.867    1515.11    12.0926    27.0898  0.000e+00
      0.874    1515.11    12.0925    27.0899  0.000e+00
      0.875    1515.11    12.0924    27.0902  0.000e+00
      0.870    1515.11    12.0928    27.0903  0.000e+00
      0.864    1515.11    12.0931    27.0906  0.000e+00
      0.857    1515.11    12.0968    27.0911  0.000e+00
      0.856    1515.12    12.0982    27.0927  0.000e+00
      0.860    1515.12    12.0976    27.0947  0.000e+00
      0.863    1515.12    12.0963    27.0955  0.000e+00
      0.854    1515.12    12.0949    27.0955  0.000e+00
      0.847    1515.12    12.0948    27.0946  0.000e+00
      0.847    1515.12    12.0938    27.0937  0.000e+00
      0.858    1515.11    12.0942    27.0927  0.000e+00
      0.876    1515.11    12.0945    27.0925  0.000e+00
      0.882    1515.11    12.0937    27.0923  0.000e+00
      0.879    1515.11    12.0943    27.0925  0.000e+00
      0.862    1515.11    12.0939    27.0925  0.000e+00
      0.841    1515.11    12.0938    27.0923  0.000e+00
      0.838    1515.11    12.0932    27.0920  0.000e+00
      0.852    1515.11    12.0923    27.0916  0.000e+00
      0.863    1515.11    12.0925    27.0909  0.000e+00
      0.871    1515.11    12.0926    27.0903  0.000e+00
      0.878    1515.11    12.0921    27.0903  0.000e+00
      0.875    1515.10    12.0917    27.0896  0.000e+00
      0.869    1515.10    12.0921    27.0893  0.000e+00
      0.863    1515.10    12.0921    27.0890  0.000e+00
      0.857    1515.10    12.0912    27.0892  0.000e+00
      0.852    1515.10    12.0912    27.0889  0.000e+00
      0.846    1515.10    12.0915    27.0888  0.000e+00
      0.842    1515.10    12.0908    27.0887  0.000e+00
      0.850    1515.10    12.0908    27.0885  0.000e+00
      0.861    1515.10    12.0914    27.0884  0.000e+00
      0.863    1515.10    12.0913    27.0888  0.000e+00
      0.864    1515.10    12.0914    27.0890  0.000e+00
      0.870    1515.10    12.0914    27.0891  0.000e+00
      0.874    1515.10    12.0916    27.0889  0.000e+00
      0.881    1515.10    12.0919    27.0893  0.000e+00
      0.879    1515.10    12.0928    27.0891  0.000e+00
      0.866    1515.11    12.0934    27.0897  0.000e+00
      0.844    1515.11    12.0936    27.0906  0.000e+00
      0.841    1515.11    12.0933    27.0910  0.000e+00
      0.852    1515.11    12.0929    27.0916  0.000e+00
      0.858    1515.11    12.0933    27.0916  0.000e+00
      0.856    1515.11    12.0937    27.0918  0.000e+00
      0.854    1515.11    12.0941    27.0920  0.000e+00
      0.850    1515.11    12.0939    27.0927  0.000e+00
      0.860    1515.11    12.0936    27.0927  0.000e+00
      0.876    1515.11    12.0938    27.0925  0.000e+00
      0.888    1515.11    12.0941    27.0925  0.000e+00
      0.883    1515.11    12.0941    27.0925  0.000e+00
      0.859    1515.11    12.0936    27.0929  0.000e+00
      0.844    1515.11    12.0938    27.0929  0.000e+00
      0.844    1515.11    12.0945    27.0925  0.000e+00
      0.859    1515.12    12.0942    27.0931  0.000e+00
      0.871    1515.12    12.0942    27.0931  0.000e+00
      0.878    1515.12    12.0941    27.0931  0.000e+00
      0.872    1515.11    12.0940    27.0929  0.000e+00
      0.859    1515.11    12.0943    27.0926  0.000e+00
      0.845    1515.12    12.0948    27.0930  0.000e+00
      0.846    1515.12    12.0947    27.0933  0.000e+00
      0.855    1515.12    12.0946    27.0935  0.000e+00
      0.862    1515.12    12.0949    27.0938  0.000e+00
      0.863    1515.12    12.0951    27.0941  0.000e+00
      0.857    1515.12    12.0950    27.0942  0.000e+00
      0.865    1515.12    12.0945    27.0945  0.000e+00
      0.873    1515.12    12.0938    27.0943  0.000e+00
      0.880    1515.12    12.0934    27.0943  0.000e+00
      0.884    1515.12    12.0940    27.0937  0.000e+00
      0.876    1515.12    12.0939    27.0941  0.000e+00
      0.859    1515.12    12.0943    27.0941  0.000e+00
      0.848    1515.12    12.0943    27.0944  0.000e+00
      0.840    1515.12    12.0946    27.0944  0.000e+00
      0.844    1515.12    12.0945    27.0946  0.000e+00
      0.852    1515.12    12.0947    27.0946  0.000e+00
      0.862    1515.12    12.0949    27.0947  0.000e+00
      0.871    1515.12    12.0949    27.0946  0.000e+00
      0.877    1515.12    12.0948    27.0949  0.000e+00
      0.877    1515.12    12.0955    27.0949  0.000e+00
      0.871    1515.12    12.0956    27.0949  0.000e+00
      0.868    1515.12    12.0955    27.0947  0.000e+00
      0.868    1515.12    12.0959    27.0948  0.000e+00
      0.860    1515.12    12.0958    27.0946  0.000e+00
      0.850    1515.12    12.0960    27.0947  0.000e+00
      0.843    1515.12    12.0960    27.0949  0.000e+00
      0.843    1515.12    12.0965    27.0947  0.000e+00
      0.851    1515.12    12.0968    27.0950  0.000e+00
      0.865    1515.12    12.0967    27.0954  0.000e+00
      0.873    1515.13    12.0976    27.0956  0.000e+00
      0.875    1515.13    12.1011    27.0963  0.000e+00
      0.882    1515.13    12.1009    27.0979  0.000e+00
      0.880    1515.14    12.1035    27.0995  0.000e+00
      0.868    1515.15    12.1049    27.1015  0.000e+00
      0.854    1515.16    12.1070    27.1044  0.000e+00
      0.837    1515.16    12.1046    27.1072  0.000e+00
      0.824    1515.16    12.1017    27.1078  0.000e+00
      0.838    1515.16    12.1017    27.1063  0.000e+00
      0.864    1515.15    12.1002    27.1051  0.000e+00
      0.880    1515.14    12.0960    27.1034  0.000e+00
      0.879    1515.14    12.0962    27.1009  0.000e+00
      0.869    1515.13    12.0978    27.0989  0.000e+00
      0.850    1515.13    12.0979    27.0982  0.000e+00
      0.847    1515.13    12.0982    27.0978  0.000e+00
      0.860    1515.13    12.0982    27.0978  0.000e+00
      0.869    1515.13    12.0984    27.0976  0.000e+00
      0.873    1515.13    12.0975    27.0978  0.000e+00
      0.862    1515.13    12.0969    27.0976  0.000e+00
      0.842    1515.13    12.0955    27.0967  0.000e+00
      0.835    1515.12    12.0957    27.0959  0.000e+00
      0.849    1515.12    12.0964    27.0955  0.000e+00
      0.867    1515.12    12.0949    27.0954  0.000e+00
      0.874    1515.12    12.0944    27.0946  0.000e+00
      0.870    1515.12    12.0946    27.0941  0.000e+00
      0.855    1515.12    12.0950    27.0934  0.000e+00
      0.848    1515.12    12.0962    27.0935  0.000e+00
      0.859    1515.12    12.0977    27.0939  0.000e+00
      0.867    1515.13    12.1009    27.0951  0.000e+00
      0.872    1515.13    12.1002    27.0972  0.000e+00
      0.865    1515.14    12.0998    27.0988  0.000e+00
      0.851    1515.14    12.0990    27.0994  0.000e+00
      0.842    1515.14    12.0985    27.0996  0.000e+00
      0.845    1515.13    12.0983    27.0991  0.000e+00
      0.857    1515.13    12.0987    27.0989  0.000e+00
      0.870    1515.13    12.0991    27.0988  0.000e+00
      0.871    1515.13    12.0980    27.0990  0.000e+00
      0.868    1515.13    12.0970    27.0990  0.000e+00
      0.866    1515.13    12.0968    27.0991  0.000e+00
      0.864    1515.13    12.0962    27.1001  0.000e+00
      0.862    1515.14    12.0958    27.1008  0.000e+00
      0.863    1515.14    12.0949    27.1023  0.000e+00
      0.858    1515.14    12.0967    27.1032  0.000e+00
      0.853    1515.15    12.0982    27.1045  0.000e+00
      0.849    1515.15    12.0986    27.1053  0.000e+00
      0.851    1515.15    12.0990    27.1063  0.000e+00
      0.860    1515.15    12.0996    27.1066  0.000e+00
      0.874    1515.15    12.1000    27.1063  0.000e+00
      0.885    1515.15    12.0996    27.1061  0.000e+00
      0.884    1515.15    12.0991    27.1054  0.000e+00
      0.881    1515.15    12.0993    27.1051  0.000e+00
      0.871    1515.15    12.0991    27.1047  0.000e+00
      0.862    1515.15    12.0995    27.1039  0.000e+00
      0.853    1515.14    12.0977    27.1036  0.000e+00
      0.844    1515.14    12.0958    27.1029  0.000e+00
      0.837    1515.13    12.0939    27.1014  0.000e+00
      0.840    1515.13    12.0967    27.0998  0.000e+00
      0.852    1515.13    12.0969    27.0993  0.000e+00
      0.867    1515.13    12.0947    27.0996  0.000e+00
      0.880    1515.13    12.0939    27.0993  0.000e+00
      0.889    1515.13    12.0935    27.0991  0.000e+00
      0.888    1515.13    12.0931    27.0996  0.000e+00
      0.884    1515.13    12.0929    27.1004  0.000e+00
      0.873    1515.13    12.0931    27.1014  0.000e+00
      0.856    1515.14    12.0934    27.1023  0.000e+00
      0.842    1515.14    12.0931    27.1022  0.000e+00
      0.836    1515.13    12.0936    27.1007  0.000e+00
      0.845    1515.13    12.0937    27.1000  0.000e+00
      0.856    1515.13    12.0931    27.0995  0.000e+00
      0.868    1515.13    12.0949    27.0997  0.000e+00
      0.872    1515.13    12.0952    27.0997  0.000e+00
      0.871    1515.13    12.0933    27.1009  0.000e+00
      0.872    1515.14    12.0925    27.1023  0.000e+00
      0.877    1515.14    12.0940    27.1025  0.000e+00
      0.882    1515.14    12.0956    27.1013  0.000e+00
      0.880    1515.13    12.0964    27.1001  0.000e+00
      0.868    1515.13    12.0967    27.0995  0.000e+00
      0.852    1515.13    12.0950    27.0994  0.000e+00
      0.845    1515.13    12.0955    27.0996  0.000e+00
      0.846    1515.13    12.0956    27.0997  0.000e+00
      0.859    1515.13    12.0964    27.0994  0.000e+00
      0.868    1515.13    12.0984    27.0992  0.000e+00
      0.871    1515.14    12.0995    27.0999  0.000e+00
      0.870    1515.14    12.0985    27.1004  0.000e+00
      0.866    1515.14    12.0982    27.1006  0.000e+00
      0.863    1515.14    12.0983    27.1007  0.000e+00
      0.875    1515.14    12.0984    27.1004  0.000e+00
      0.885    1515.14    12.0983    27.1003  0.000e+00
      0.885    1515.14    12.0984    27.1003  0.000e+00
      0.873    1515.14    12.0986    27.1003  0.000e+00
      0.858    1515.14    12.0981    27.1004  0.000e+00
      0.843    1515.14    12.0981    27.1000  0.000e+00
      0.851    1515.13    12.0981    27.0994  0.000e+00
      0.871    1515.13    12.0973    27.0991  0.000e+00
      0.887    1515.13    12.0969    27.0985  0.000e+00
      0.893    1515.13    12.0971    27.0981  0.000e+00
      0.888    1515.13    12.0962    27.0978  0.000e+00
      0.872    1515.13    12.0968    27.0971  0.000e+00
      0.862    1515.13    12.0968    27.0967  0.000e+00
      0.862    1515.13    12.0971    27.0967  0.000e+00
      0.868    1515.13    12.0967    27.0965  0.000e+00
      0.875    1515.12    12.0953    27.0964  0.000e+00
      0.880    1515.12    12.0953    27.0955  0.000e+00
      0.875    1515.12    12.0957    27.0950  0.000e+00
      0.869    1515.12    12.0952    27.0946  0.000e+00
      0.876    1515.12    12.0949    27.0942  0.000e+00
      0.895    1515.12    12.0954    27.0938  0.000e+00
      0.907    1515.12    12.0958    27.0938  0.000e+00
      0.909    1515.12    12.0954    27.0939  0.000e+00
      0.908    1515.12    12.0954    27.0938  0.000e+00
      0.905    1515.12    12.0954    27.0936  0.000e+00
      0.903    1515.12    12.0946    27.0938  0.000e+00
      0.904    1515.12    12.0950    27.0936  0.000e+00
      0.908    1515.12    12.0953    27.0937  0.000e+00
      0.913    1515.12    12.0953    27.0936  0.000e+00
      0.922    1515.12    12.0951    27.0935  0.000e+00
      0.930    1515.12    12.0946    27.0937  0.000e+00
      0.935    1515.12    12.0947    27.0932  0.000e+00
      0.930    1515.12    12.0948    27.0930  0.000e+00
      0.925    1515.12    12.0942    27.0928  0.000e+00
      0.918    1515.11    12.0934    27.0925  0.000e+00
      0.918    1515.11    12.0931    27.0919  0.000e+00
      0.920    1515.11    12.0933    27.0917  0.000e+00
      0.919    1515.11    12.0934    27.0911  0.000e+00
      0.918    1515.11    12.0935    27.0912  0.000e+00
      0.915    1515.11    12.0938    27.0909  0.000e+00
      0.919    1515.11    12.0940    27.0911  0.000e+00
      0.932    1515.11    12.0948    27.0911  0.000e+00
      0.931    1515.12    12.0965    27.0919  0.000e+00
      0.931    1515.12    12.0972    27.0931  0.000e+00
      0.931    1515.12    12.0969    27.0944  0.000e+00
      0.927    1515.12    12.0963    27.0952  0.000e+00
      0.935    1515.12    12.0959    27.0953  0.000e+00
      0.951    1515.12    12.0962    27.0947  0.000e+00
      0.949    1515.12    12.0966    27.0946  0.000e+00
      0.942    1515.12    12.0960    27.0950  0.000e+00
      0.929    1515.12    12.0962    27.0948  0.000e+00
      0.917    1515.12    12.0966    27.0951  0.000e+00
      0.927    1515.12    12.0961    27.0955  0.000e+00
      0.952    1515.12    12.0955    27.0953  0.000e+00
      0.979    1515.12    12.0956    27.0949  0.000e+00
      0.991    1515.12    12.0957    27.0951  0.000e+00
      1.022    1515.12    12.0948    27.0950  0.000e+00
      1.097    1515.12    12.0904    27.0942  0.000e+00
      1.189    1515.12    12.0913    27.0922  0.000e+00
      1.276    1515.11    12.0916    27.0904  0.000e+00
      1.373    1515.11    12.0901    27.0893  0.000e+00
      1.490    1515.11    12.0875    27.0886  0.000e+00
      1.589    1515.11    12.0895    27.0879  0.000e+00
      1.658    1515.11    12.0893    27.0883  0.000e+00
      1.728    1515.11    12.0902    27.0885  0.000e+00
      1.824    1515.12    12.0921    27.0895  0.000e+00
      1.937    1515.13    12.0919    27.0909  0.000e+00
      2.072    1515.13    12.0944    27.0918  0.000e+00
      2.211    1515.14    12.0912    27.0933  0.000e+00
      2.311    1515.14    12.0902    27.0938  0.000e+00
      2.340    1515.14    12.0923    27.0933  0.000e+00
      2.350    1515.14    12.0927    27.0938  0.000e+00
      2.396    1515.14    12.0947    27.0943  0.000e+00
      2.467    1515.15    12.0944    27.0951  0.000e+00
      2.535    1515.15    12.0935    27.0958  0.000e+00
      2.616    1515.16    12.0982    27.0960  0.000e+00
      2.725    1515.18    12.1122    27.0988  0.000e+00
      2.836    1515.19    12.1058    27.1061  0.000e+00
      2.944    1515.19    12.0979    27.1087  0.000e+00
      3.036    1515.20    12.1035    27.1073  0.000e+00
      3.078    1515.19    12.0990    27.1069  0.000e+00
      3.097    1515.19    12.0997    27.1060  0.000e+00
      3.149    1515.19    12.1018    27.1056  0.000e+00
      3.211    1515.20    12.1055    27.1063  0.000e+00
      3.264    1515.22    12.1142    27.1087  0.000e+00
      3.322    1515.22    12.1084    27.1129  0.000e+00
      3.394    1515.24    12.1191    27.1148  0.000e+00
      3.457    1515.25    12.1168    27.1193  0.000e+00
      3.486    1515.25    12.1114    27.1225  0.000e+00
      3.509    1515.25    12.1154    27.1223  0.000e+00
      3.559    1515.26    12.1155    27.1232  0.000e+00
      3.630    1515.26    12.1174    27.1241  0.000e+00
      3.708    1515.27    12.1198    27.1255  0.000e+00
      3.792    1515.28    12.1215    27.1278  0.000e+00
      3.890    1515.29    12.1280    27.1302  0.000e+00
      3.990    1515.31    12.1369    27.1347  0.000e+00
      4.087    1515.33    12.1377    27.1405  0.000e+00
      4.156    1515.34    12.1376    27.1448  0.000e+00
      4.176    1515.35    12.1343    27.1476  0.000e+00
      4.195    1515.34    12.1308    27.1479  0.000e+00
      4.287    1515.34    12.1278    27.1466  0.000e+00
      4.459    1515.33    12.1218    27.1445  0.000e+00
      4.632    1515.34    12.1323    27.1418  0.000e+00
      4.761    1515.35    12.1370    27.1423  0.000e+00
      4.865    1515.36    12.1380    27.1450  0.000e+00
      4.947    1515.36    12.1360    27.1474  0.000e+00
      5.021    1515.36    12.1345    27.1486  0.000e+00
      5.091    1515.37    12.1360    27.1482  0.000e+00
      5.176    1515.37    12.1417    27.1484  0.000e+00
      5.272    1515.42    12.1714    27.1520  0.000e+00
      5.391    1515.44    12.1717    27.1622  0.000e+00
      5.547    1515.47    12.1764    27.1685  0.000e+00
      5.697    1515.48    12.1846    27.1715  0.000e+00
      5.813    1515.50    12.1870    27.1749  0.000e+00
      5.912    1515.51    12.1884    27.1777  0.000e+00
      6.014    1515.51    12.1881    27.1796  0.000e+00
      6.123    1515.52    12.1894    27.1809  0.000e+00
      6.251    1515.52    12.1887    27.1815  0.000e+00
      6.398    1515.53    12.1907    27.1821  0.000e+00
      6.563    1515.54    12.1947    27.1823  0.000e+00
      6.697    1515.54    12.2011    27.1812  0.000e+00
      6.797    1515.54    12.2038    27.1789  0.000e+00
      6.879    1515.54    12.2065    27.1766  0.000e+00
      6.952    1515.54    12.2076    27.1743  0.000e+00
      7.010    1515.53    12.2077    27.1728  0.000e+00
      7.045    1515.53    12.2080    27.1720  0.000e+00
      7.051    1515.53    12.2079    27.1720  0.000e+00
      7.055    1515.53    12.2077    27.1721  0.000e+00
      7.099    1515.53    12.2077    27.1722  0.000e+00
      7.188    1515.54    12.2079    27.1722  0.000e+00
      7.346    1515.54    12.2086    27.1718  0.000e+00
      7.549    1515.54    12.2093    27.1714  0.000e+00
      7.721    1515.54    12.2095    27.1706  0.000e+00
      7.865    1515.54    12.2112    27.1700  0.000e+00
      7.990    1515.55    12.2125    27.1693  0.000e+00
      8.084    1515.55    12.2138    27.1679  0.000e+00
      8.145    1515.55    12.2152    27.1666  0.000e+00
      8.207    1515.54    12.2160    27.1654  0.000e+00
      8.275    1515.54    12.2169    27.1642  0.000e+00
      8.349    1515.54    12.2172    27.1635  0.000e+00
      8.412    1515.54    12.2176    27.1631  0.000e+00
      8.449    1515.55    12.2196    27.1626  0.000e+00
      8.460    1515.54    12.2203    27.1614  0.000e+00
      8.492    1515.54    12.2197    27.1606  0.000e+00
      8.587    1515.54    12.2206    27.1602  0.000e+00
      8.747    1515.55    12.2225    27.1596  0.000e+00
      8.939    1515.55    12.2245    27.1585  0.000e+00
      9.127    1515.55    12.2256    27.1570  0.000e+00
      9.304    1515.55    12.2288    27.1550  0.000e+00
      9.453    1515.55    12.2316    27.1522  0.000e+00
      9.585    1515.55    12.2336    27.1495  0.000e+00
      9.700    1515.55    12.2355    27.1471  0.000e+00
      9.810    1515.54    12.2367    27.1451  0.000e+00
      9.912    1515.55    12.2380    27.1441  0.000e+00
     10.010    1515.55    12.2399    27.1427  0.000e+00
     10.087    1515.55    12.2411    27.1417  0.000e+00
     10.159    1515.55    12.2424    27.1407  0.000e+00
     10.250    1515.55    12.2440    27.1396  0.000e+00
     10.368    1515.55    12.2461    27.1392  0.000e+00
     10.501    1515.55    12.2476    27.1381  0.000e+00
     10.634    1515.55    12.2490    27.1369  0.000e+00
     10.774    1515.55    12.2511    27.1357  0.000e+00
     10.910    1515.55    12.2535    27.1344  0.000e+00
     11.032    1515.55    12.2545    27.1331  0.000e+00
     11.119    1515.55    12.2552    27.1321  0.000e+00
     11.157    1515.55    12.2558    27.1309  0.000e+00
     11.161    1515.55    12.2557    27.1305  0.000e+00
     11.181    1515.55    12.2557    27.1305  0.000e+00
     11.242    1515.55    12.2555    27.1302  0.000e+00
     11.350    1515.55    12.2561    27.1300  0.000e+00
     11.480    1515.56    12.2560    27.1299  0.000e+00
     11.622    1515.56    12.2566    27.1298  0.000e+00
     11.752    1515.56    12.2582    27.1296  0.000e+00
     11.854    1515.57    12.2624    27.1289  0.000e+00
     11.925    1515.57    12.2653    27.1273  0.000e+00
     11.961    1515.56    12.2657    27.1255  0.000e+00
     11.977    1515.56    12.2649    27.1246  0.000e+00
     11.991    1515.56    12.2661    27.1242  0.000e+00
     12.023    1515.56    12.2660    27.1237  0.000e+00
     12.104    1515.56    12.2681    27.1233  0.000e+00
     12.235    1515.57    12.2700    27.1225  0.000e+00
     12.425    1515.57    12.2728    27.1211  0.000e+00
     12.642    1515.57    12.2760    27.1190  0.000e+00
     12.862    1515.57    12.2816    27.1168  0.000e+00
     13.037    1515.58    12.2851    27.1143  0.000e+00
     13.190    1515.58    12.2940    27.1115  0.000e+00
     13.342    1515.58    12.3008    27.1065  0.000e+00
     13.499    1515.58    12.3207    27.0987  0.000e+00
     13.642    1515.56    12.3292    27.0852  0.000e+00
     13.803    1515.54    12.3335    27.0715  0.000e+00
     13.972    1515.51    12.3373    27.0600  0.000e+00
     14.095    1515.50    12.3422    27.0494  0.000e+00
     14.174    1515.47    12.3460    27.0382  0.000e+00
     14.203    1515.46    12.3485    27.0293  0.000e+00
     14.219    1515.44    12.3509    27.0233  0.000e+00
     14.273    1515.43    12.3522    27.0180  0.000e+00
     14.383    1515.43    12.3561    27.0139  0.000e+00
     14.508    1515.43    12.3734    27.0057  0.000e+00
     14.624    1515.43    12.4138    26.9862  0.000e+00
     14.720    1515.36    12.4318    26.9519  0.000e+00
     14.791    1515.30    12.4396    26.9235  0.000e+00
     14.850    1515.28    12.4498    26.9073  0.000e+00
     14.898    1515.26    12.4558    26.8971  0.000e+00
     14.931    1515.25    12.4593    26.8904  0.000e+00
     14.942    1515.24    12.4617    26.8861  0.000e+00
     14.968    1515.23    12.4642    26.8828  0.000e+00
     15.043    1515.23    12.4669    26.8805  0.000e+00
     15.161    1515.24    12.4748    26.8776  0.000e+00
     15.297    1515.25    12.4942    26.8727  0.000e+00
     15.431    1515.24    12.5130    26.8629  0.000e+00
     15.532    1515.24    12.5347    26.8490  0.000e+00
     15.609    1515.21    12.5461    26.8342  0.000e+00
     15.669    1515.19    12.5589    26.8210  0.000e+00
     15.724    1515.17    12.5622    26.8091  0.000e+00
     15.789    1515.16    12.5666    26.8024  0.000e+00
     15.858    1515.15    12.5713    26.7972  0.000e+00
     15.924    1515.15    12.5749    26.7927  0.000e+00
     15.957    1514.30    11.7885    26.7865  0.000e+00
     15.970    1513.17    10.8276    26.7404  0.000e+00
     15.975    1513.16    11.0247    26.6539  0.000e+00
     15.978    1512.85    10.9217    26.5724  0.000e+00
     15.997    1512.58    10.8189    26.5069  0.000e+00
     16.057    1512.14    10.5007    26.4642  0.000e+00
     16.088    1511.91    10.3640    26.4316  0.000e+00
