( Absorption  1.0 0 201203212242 22.50000000 -156.50000000 -1 0 0 OMS01_00000 P 0035 )
0.000 101.649 101.649 23.866
6.870 101.429 101.539 23.821
10.000 99.876 101.261 23.288
20.000 99.617 100.504 23.244
30.000 99.243 100.146 23.160
50.000 98.564 99.649 23.015
75.000 97.504 99.111 22.760
100.000 96.080 98.531 22.378
125.000 93.857 97.819 21.722
150.000 90.663 96.892 20.738
200.000 82.613 94.329 18.163
250.000 74.002 91.124 15.261
300.000 66.637 87.657 12.517
400.000 58.739 81.415 9.074
500.000 54.570 76.463 6.811
600.000 52.495 72.641 5.561
700.000 51.304 69.678 4.897
800.000 50.509 67.331 4.570
900.000 49.762 65.421 4.250
1000.000 49.086 63.821 3.978
1100.000 48.477 62.454 3.763
1200.000 47.883 61.264 3.533
1300.000 47.334 60.214 3.344
1400.000 46.796 59.275 3.139
1500.000 46.298 58.426 2.982
1750.000 45.118 56.609 2.591
2000.000 44.059 55.107 2.390
2500.000 42.667 52.758 4.480
3000.000 40.268 50.876 2.103
3500.000 38.528 49.236 2.211
4000.000 36.860 47.794 2.392
4500.000 35.259 46.490 2.624
5000.000 33.728 45.290 2.886
5500.000 32.274 44.173 3.139
12000.000 21.412 34.786 8.412
