( Absorption  1.0 0 201203212242 22.50000000 -156.50000000 -1 0 0 OMS01_00000 P 0035 )
0.000 0.868 0.868 23.866
6.870 0.869 0.868 23.821
10.000 0.880 0.870 23.288
20.000 0.880 0.875 23.244
30.000 0.881 0.877 23.160
50.000 0.882 0.879 23.015
75.000 0.886 0.881 22.760
100.000 0.892 0.883 22.378
125.000 0.905 0.886 21.722
150.000 0.926 0.891 20.738
200.000 0.990 0.908 18.163
250.000 1.072 0.932 15.261
300.000 1.159 0.963 12.517
400.000 1.274 1.026 9.074
500.000 1.350 1.083 6.811
600.000 1.385 1.131 5.561
700.000 1.394 1.168 4.897
800.000 1.389 1.195 4.570
900.000 1.383 1.217 4.250
1000.000 1.375 1.233 3.978
1100.000 1.365 1.245 3.763
1200.000 1.355 1.255 3.533
1300.000 1.344 1.262 3.344
1400.000 1.333 1.268 3.139
1500.000 1.320 1.271 2.982
1750.000 1.288 1.276 2.591
2000.000 1.250 1.275 2.390
2500.000 1.091 1.254 4.480
3000.000 1.088 1.227 2.103
3500.000 1.006 1.201 2.211
4000.000 0.929 1.172 2.392
4500.000 0.856 1.141 2.624
5000.000 0.789 1.109 2.886
5500.000 0.729 1.077 3.139
12000.000 0.382 0.794 8.412
