( Absorption  1.0 0 201203212242 22.50000000 -156.50000000 -1 0 0 OMS01_00000 P 0035 )
0.000 5.060 5.060 999.000
6.870 5.060 5.060 999.000
10.000 5.060 5.060 999.000
20.000 5.070 5.062 999.000
30.000 5.080 5.067 999.000
50.000 5.100 5.076 999.000
75.000 5.130 5.089 999.000
100.000 5.180 5.105 999.000
125.000 5.280 5.130 999.000
150.000 5.420 5.167 999.000
200.000 5.760 5.273 999.000
250.000 6.150 5.409 999.000
300.000 6.530 5.564 999.000
400.000 6.950 5.858 999.000
500.000 7.160 6.098 999.000
600.000 7.220 6.280 999.000
700.000 7.210 6.413 999.000
800.000 7.160 6.510 999.000
900.000 7.100 6.579 999.000
1000.000 7.030 6.627 999.000
1100.000 6.950 6.660 999.000
1200.000 6.870 6.681 999.000
1300.000 6.790 6.693 999.000
1400.000 6.700 6.696 999.000
1500.000 6.610 6.694 999.000
1750.000 6.400 6.667 999.000
2000.000 6.170 6.619 999.000
2500.000 5.740 6.486 999.000
3000.000 5.320 6.327 999.000
3500.000 4.930 6.155 999.000
4000.000 4.550 5.978 999.000
4500.000 4.210 5.801 999.000
5000.000 3.890 5.626 999.000
5500.000 3.600 5.455 999.000
12000.000 2.010 4.019 999.000
