( Absorption  1.0 0 201203212242 22.50000000 -156.50000000 -1 0 0 OMS01_00000 P 0035 )
0.000 115.898 115.898 23.866
6.870 115.628 115.763 23.821
10.000 113.621 115.407 23.288
20.000 113.312 114.437 23.244
30.000 112.856 113.986 23.160
50.000 112.032 113.369 23.015
75.000 110.739 112.708 22.760
100.000 108.994 111.998 22.378
125.000 106.276 111.125 21.722
150.000 102.425 109.996 20.738
200.000 93.096 106.937 18.163
250.000 83.655 103.225 15.261
300.000 76.020 99.327 12.517
400.000 68.402 92.548 9.074
500.000 64.753 87.354 6.811
600.000 63.057 83.446 5.561
700.000 62.078 80.463 4.897
800.000 61.372 78.121 4.570
900.000 60.715 76.223 4.250
1000.000 60.114 74.642 3.978
1100.000 59.556 73.296 3.763
1200.000 59.022 72.129 3.533
1300.000 58.515 71.101 3.344
1400.000 58.029 70.185 3.139
1500.000 57.560 69.359 2.982
1750.000 56.458 67.595 2.591
2000.000 55.384 66.135 2.390
2500.000 52.802 63.727 4.480
3000.000 51.277 61.779 2.103
3500.000 49.255 60.134 2.211
4000.000 47.276 58.651 2.392
4500.000 45.349 57.280 2.624
5000.000 43.487 55.994 2.886
5500.000 41.717 54.776 3.139
12000.000 27.172 43.763 8.412
