( Absorption  1.0 0 201203212242 22.50000000 -156.50000000 -1 0 0 OMS01_00000 P 0035 )
0.00 125.73 125.73
6.87 125.51 125.62
10.00 125.50 125.58
20.00 125.17 125.46
30.00 124.66 125.28
50.00 123.76 124.85
75.00 122.33 124.25
100.00 120.39 123.52
125.00 117.39 122.60
150.00 113.15 121.38
200.00 103.03 118.05
250.00 93.18 114.07
300.00 85.42 109.94
400.00 78.61 102.96
500.00 75.74 97.80
600.00 74.63 94.03
700.00 74.02 91.22
800.00 73.53 89.04
900.00 73.06 87.29
1000.00 72.61 85.84
1100.00 72.17 84.62
1200.00 71.75 83.57
1300.00 71.34 82.64
1400.00 70.96 81.82
1500.00 70.57 81.08
1750.00 69.69 79.52
2000.00 68.71 78.23
2500.00 66.79 76.13
3000.00 64.74 74.41
3500.00 62.65 72.88
4000.00 60.58 71.47
4500.00 58.57 70.15
5000.00 56.62 68.89
5500.00 54.81 67.69
12000.00 38.26 56.23
