( Absorption  1.0 0 201203212242 22.50000000 -156.50000000 -1 0 0 OMS01_00000 P 0035 )
0.000 47.907 47.907 23.866
6.870 47.866 47.887 23.821
10.000 47.891 47.884 23.288
20.000 47.826 47.871 23.244
30.000 47.763 47.846 23.160
50.000 47.634 47.787 23.015
75.000 47.469 47.708 22.760
100.000 47.292 47.626 22.378
125.000 47.068 47.537 21.722
150.000 46.719 47.430 20.738
200.000 45.386 47.085 18.163
250.000 43.027 46.510 15.261
300.000 40.067 45.682 12.517
400.000 35.560 43.715 9.074
500.000 32.367 41.765 6.811
600.000 30.478 40.041 5.561
700.000 29.331 38.593 4.897
800.000 28.592 37.389 4.570
900.000 27.881 36.372 4.250
1000.000 27.239 35.491 3.978
1100.000 26.672 34.715 3.763
1200.000 26.103 34.021 3.533
1300.000 25.587 33.392 3.344
1400.000 25.068 32.816 3.139
1500.000 24.606 32.284 2.982
1750.000 23.493 31.108 2.591
2000.000 22.591 30.100 2.390
2500.000 22.743 28.613 4.480
3000.000 19.675 27.379 2.103
3500.000 18.510 26.195 2.211
4000.000 17.449 25.168 2.392
4500.000 16.470 24.256 2.624
5000.000 15.560 23.432 2.886
5500.000 14.701 22.677 3.139
12000.000 10.004 17.085 8.412
