( Absorption  1.0 0 201203212242 22.50000000 -156.50000000 -1 0 0 OMS01_00000 P 0035 )
0.000 84.524 84.524 23.866
6.870 84.369 84.447 23.821
10.000 83.409 84.272 23.288
20.000 83.216 83.792 23.244
30.000 82.953 83.556 23.160
50.000 82.466 83.218 23.015
75.000 81.721 82.843 22.760
100.000 80.734 82.439 22.378
125.000 79.201 81.945 21.722
150.000 76.956 81.300 20.738
200.000 70.947 79.463 18.163
250.000 63.959 77.061 15.261
300.000 57.504 74.339 12.517
400.000 49.991 69.191 9.074
500.000 45.671 64.919 6.811
600.000 43.403 61.522 5.561
700.000 42.094 58.840 4.897
800.000 41.255 56.695 4.570
900.000 40.459 54.935 4.250
1000.000 39.745 53.452 3.978
1100.000 39.111 52.177 3.763
1200.000 38.485 51.062 3.533
1300.000 37.915 50.073 3.344
1400.000 37.349 49.184 3.139
1500.000 36.838 48.378 2.982
1750.000 35.620 46.642 2.591
2000.000 34.589 45.200 2.390
2500.000 34.099 43.029 4.480
3000.000 31.098 41.291 2.103
3500.000 29.598 39.727 2.211
4000.000 28.192 38.373 2.392
4500.000 26.864 37.168 2.624
5000.000 25.608 36.075 2.886
5500.000 24.417 35.069 3.139
12000.000 16.522 27.161 8.412
