( Absorption  1.0 0 201203212242 22.50000000 -156.50000000 -1 0 0 OMS01_00000 P 0035 )
0.000 4.969 4.969 23.866
6.870 4.971 4.970 23.821
10.000 5.055 4.984 23.288
20.000 5.055 5.019 23.244
30.000 5.061 5.032 23.160
50.000 5.070 5.046 23.015
75.000 5.094 5.058 22.760
100.000 5.138 5.072 22.378
125.000 5.227 5.094 21.722
150.000 5.373 5.129 20.738
200.000 5.778 5.240 18.163
250.000 6.250 5.395 15.261
300.000 6.691 5.574 12.517
400.000 7.158 5.912 9.074
500.000 7.371 6.182 6.811
600.000 7.410 6.384 5.561
700.000 7.370 6.528 4.897
800.000 7.294 6.628 4.570
900.000 7.215 6.698 4.250
1000.000 7.132 6.745 3.978
1100.000 7.044 6.776 3.763
1200.000 6.957 6.795 3.533
1300.000 6.867 6.804 3.344
1400.000 6.778 6.805 3.139
1500.000 6.687 6.801 2.982
1750.000 6.461 6.768 2.591
2000.000 6.231 6.715 2.390
2500.000 5.664 6.562 4.480
3000.000 5.359 6.387 2.103
3500.000 4.957 6.211 2.211
4000.000 4.580 6.031 2.392
4500.000 4.228 5.850 2.624
5000.000 3.903 5.672 2.886
5500.000 3.604 5.497 3.139
12000.000 1.882 4.005 8.412
