( Absorption  1.0 0 201203212242 22.50000000 -156.50000000 -1 0 0 OMS01_00000 P 0035 )
0.000 128.520 128.520 23.866
6.870 128.216 128.368 23.821
10.000 125.890 127.956 23.288
20.000 125.545 126.837 23.244
30.000 125.031 126.321 23.160
50.000 124.106 125.620 23.015
75.000 122.652 124.873 22.760
100.000 120.689 124.072 22.378
125.000 117.643 123.091 21.722
150.000 113.377 121.828 20.738
200.000 103.360 118.463 18.163
250.000 93.651 114.471 15.261
300.000 86.187 110.379 12.517
400.000 79.305 103.471 9.074
500.000 76.444 98.352 6.811
600.000 75.271 94.603 5.561
700.000 74.577 91.791 4.897
800.000 73.993 89.603 4.570
900.000 73.459 87.839 4.250
1000.000 72.957 86.376 3.978
1100.000 72.470 85.134 3.763
1200.000 72.017 84.060 3.533
1300.000 71.568 83.116 3.344
1400.000 71.153 82.276 3.139
1500.000 70.726 81.521 2.982
1750.000 69.732 79.907 2.591
2000.000 68.649 78.568 2.390
2500.000 64.616 76.181 4.480
3000.000 64.191 74.218 2.103
3500.000 61.842 72.618 2.211
4000.000 59.500 71.124 2.392
4500.000 57.190 69.704 2.624
5000.000 54.942 68.341 2.886
5500.000 52.801 67.025 3.139
12000.000 33.873 54.194 8.412
