( Absorption  1.0 0 201203212242 22.50000000 -156.50000000 -1 0 0 OMS01_00000 P 0035 )
0.000 37.110 37.110 23.866
6.870 37.091 37.101 23.821
10.000 37.261 37.124 23.288
20.000 37.223 37.183 23.244
30.000 37.197 37.192 23.160
50.000 37.138 37.182 23.015
75.000 37.082 37.158 22.760
100.000 37.054 37.136 22.378
125.000 37.072 37.121 21.722
150.000 37.095 37.115 20.738
200.000 36.829 37.077 18.163
250.000 35.789 36.923 15.261
300.000 34.070 36.591 12.517
400.000 30.940 35.569 9.074
500.000 28.461 34.396 6.811
600.000 26.900 33.276 5.561
700.000 25.917 32.295 4.897
800.000 25.267 31.457 4.570
900.000 24.639 30.735 4.250
1000.000 24.067 30.096 3.978
1100.000 23.557 29.525 3.763
1200.000 23.045 29.006 3.533
1300.000 22.578 28.530 3.344
1400.000 22.108 28.088 3.139
1500.000 21.686 27.675 2.982
1750.000 20.670 26.747 2.591
2000.000 19.839 25.935 2.390
2500.000 19.925 24.725 4.480
3000.000 17.151 23.694 2.103
3500.000 16.080 22.683 2.211
4000.000 15.107 21.796 2.392
4500.000 14.212 21.003 2.624
5000.000 13.382 20.283 2.886
5500.000 12.601 19.620 3.139
12000.000 8.418 14.685 8.412
