( Absorption  1.0 0 201203212242 22.50000000 -156.50000000 -1 0 0 OMS01_00000 P 0035 )
0.000 0.880 0.880 999.000
6.870 0.880 0.880 999.000
10.000 0.880 0.880 999.000
20.000 0.880 0.880 999.000
30.000 0.880 0.880 999.000
50.000 0.890 0.882 999.000
75.000 0.890 0.885 999.000
100.000 0.900 0.887 999.000
125.000 0.910 0.891 999.000
150.000 0.930 0.896 999.000
200.000 0.990 0.912 999.000
250.000 1.060 0.934 999.000
300.000 1.130 0.961 999.000
400.000 1.240 1.017 999.000
500.000 1.310 1.069 999.000
600.000 1.350 1.112 999.000
700.000 1.360 1.147 999.000
800.000 1.360 1.174 999.000
900.000 1.360 1.194 999.000
1000.000 1.360 1.211 999.000
1100.000 1.350 1.224 999.000
1200.000 1.340 1.234 999.000
1300.000 1.330 1.242 999.000
1400.000 1.320 1.248 999.000
1500.000 1.310 1.252 999.000
1750.000 1.280 1.258 999.000
2000.000 1.250 1.259 999.000
2500.000 1.170 1.249 999.000
3000.000 1.090 1.229 999.000
3500.000 1.020 1.205 999.000
4000.000 0.940 1.176 999.000
4500.000 0.870 1.146 999.000
5000.000 0.810 1.116 999.000
5500.000 0.750 1.085 999.000
12000.000 0.430 0.817 999.000
