( Absorption  1.0 0 201203212242 22.50000000 -156.50000000 -1 0 0 OMS01_00000 P 0035 )
0.000 53.137 53.137 23.866
6.870 53.084 53.110 23.821
10.000 53.011 53.091 23.288
20.000 52.931 53.031 23.244
30.000 52.845 52.983 23.160
50.000 52.675 52.894 23.015
75.000 52.445 52.782 22.760
100.000 52.177 52.665 22.378
125.000 51.805 52.530 21.722
150.000 51.235 52.361 20.738
200.000 49.301 51.838 18.163
250.000 46.261 51.027 15.261
300.000 42.714 49.937 12.517
400.000 37.613 47.493 9.074
500.000 34.141 45.170 6.811
600.000 32.133 43.164 5.561
700.000 30.928 41.502 4.897
800.000 30.158 40.132 4.570
900.000 29.418 38.983 4.250
1000.000 28.752 37.993 3.978
1100.000 28.164 37.126 3.763
1200.000 27.576 36.355 3.533
1300.000 27.043 35.659 3.344
1400.000 26.508 35.025 3.139
1500.000 26.031 34.441 2.982
1750.000 24.886 33.158 2.591
2000.000 23.956 32.066 2.390
2500.000 24.100 30.458 4.480
3000.000 20.947 29.136 2.103
3500.000 19.740 27.880 2.211
4000.000 18.637 26.793 2.392
4500.000 17.618 25.830 2.624
5000.000 16.668 24.962 2.886
5500.000 15.772 24.167 3.139
12000.000 10.779 18.267 8.412
