( Absorption  1.0 0 201203212242 22.50000000 -156.50000000 -1 0 0 OMS01_00000 P 0035 )
0.000 7.758 7.758 23.866
6.870 7.761 7.759 23.821
10.000 7.885 7.779 23.288
20.000 7.884 7.832 23.244
30.000 7.893 7.851 23.160
50.000 7.905 7.870 23.015
75.000 7.938 7.887 22.760
100.000 8.002 7.908 22.378
125.000 8.131 7.940 21.722
150.000 8.340 7.989 20.738
200.000 8.905 8.147 18.163
250.000 9.529 8.361 15.261
300.000 10.058 8.600 12.517
400.000 10.510 9.021 9.074
500.000 10.615 9.329 6.811
600.000 10.545 9.538 5.561
700.000 10.418 9.673 4.897
800.000 10.275 9.757 4.570
900.000 10.131 9.806 4.250
1000.000 9.985 9.832 3.978
1100.000 9.839 9.839 3.763
1200.000 9.693 9.833 3.533
1300.000 9.549 9.816 3.344
1400.000 9.404 9.792 3.139
1500.000 9.262 9.762 2.982
1750.000 8.912 9.665 2.591
2000.000 8.577 9.550 2.390
2500.000 7.978 9.296 4.480
3000.000 7.360 9.025 2.103
3500.000 6.819 8.748 2.211
4000.000 6.316 8.476 2.392
4500.000 5.849 8.210 2.624
5000.000 5.417 7.952 2.886
5500.000 5.018 7.703 3.139
12000.000 2.740 5.632 8.412
